,T7,F8,Cz,P4
2400,528.3712158203125,-976.0147705078124,393.321533203125,348.895263671875
2401,499.8245544433594,-997.2125244140624,372.9615173339844,338.74517822265625
2402,493.8781127929688,-998.05029296875,370.02569580078125,331.9123840332031
2403,526.8565063476561,-977.8062133789062,392.6932373046875,349.1944580078125
2404,515.5807495117189,-975.7754516601562,394.2640075683594,353.27093505859375
2405,490.2391662597656,-992.358154296875,375.4186401367188,337.1594543457031
2406,489.9399719238281,-999.53125,365.4518127441406,330.52862548828125
2407,513.6023559570311,-971.41845703125,388.3212890625,344.67291259765625
2408,521.2092895507811,-973.0789794921876,391.9789123535156,347.7508544921875
2409,496.4660949707031,-990.8771362304688,369.763916015625,329.68341064453125
2410,502.05352783203125,-994.7442016601562,374.7267456054688,333.96185302734375
2411,529.0069580078125,-971.078125,394.8960266113281,343.0909423828125
2412,527.819580078125,-975.556640625,396.6294860839844,347.6517639160156
2413,494.04827880859375,-996.5337524414062,369.4030151367188,331.0877380371094
2414,495.67510986328125,-1000.3147583007812,374.5079650878906,334.6032409667969
2415,517.2019653320311,-981.402099609375,393.2710571289063,350.31829833984375
2416,515.1599731445311,-975.7548828125,396.87255859375,351.2682189941406
2417,494.5045166015625,-995.8082275390624,375.2335205078125,334.5882873535156
2418,491.669677734375,-999.2676391601562,371.4150695800781,331.3308410644531
2419,513.406005859375,-985.134521484375,388.5064086914063,341.6043395996094
2420,513.4920043945311,-977.2433471679688,386.2475280761719,346.9299621582031
2421,499.50103759765625,-1000.5130004882812,369.2608947753906,336.1029357910156
2422,489.6202087402344,-999.701416015625,365.0235900878906,323.9781799316406
2423,510.683349609375,-977.4864501953124,388.90283203125,340.6805725097656
2424,512.8375244140625,-976.4429931640624,394.1686401367188,344.6598205566406
2425,498.9737243652344,-991.555908203125,375.02783203125,331.27471923828125
2426,500.3387756347656,-994.03173828125,374.5453796386719,329.2925720214844
2427,522.3593139648439,-973.4249267578124,393.54779052734375,342.7674255371094
2428,528.73583984375,-970.3357543945312,402.17950439453125,348.0257263183594
2429,492.5896911621094,-1000.0679321289062,376.1684875488281,327.280517578125
2430,506.6741638183594,-1001.2123413085938,372.22662353515625,325.7060241699219
2431,525.0445556640625,-973.5557861328124,401.3454895019531,344.9590148925781
2432,522.0488891601561,-973.5109252929688,398.92578125,348.313720703125
2433,502.5602722167969,-994.2224731445312,374.769775390625,334.2890930175781
2434,495.7611389160156,-995.4566650390624,384.254150390625,330.0966491699219
2435,522.98388671875,-976.9815673828124,404.80865478515625,344.29705810546875
2436,522.8492431640625,-974.88720703125,400.545166015625,348.6054382324219
2437,492.7617492675781,-993.2763061523438,379.7774963378906,330.5791015625
2438,494.5606384277344,-994.7236328125,372.5295715332031,327.1795349121094
2439,528.114990234375,-972.9461669921876,400.7770385742188,347.797607421875
2440,516.7120361328125,-974.7974243164062,397.12689208984375,338.70965576171875
2441,495.7798461914063,-996.9713134765624,374.418212890625,330.0293273925781
2442,492.0586242675781,-997.08349609375,378.6592712402344,331.4841613769531
2443,522.2471313476561,-980.3773803710938,395.20458984375,343.8520202636719
2444,518.2678833007811,-975.2238159179688,397.79632568359375,349.4917907714844
2445,497.1411743164063,-993.291259765625,380.8583068847656,332.7482604980469
2446,495.3796691894531,-997.072265625,375.8917236328125,332.5575256347656
2447,516.4876708984375,-980.8934936523438,395.9226379394531,345.662109375
2448,512.8861694335939,-973.8848876953124,399.699951171875,342.5580139160156
2449,486.6395263671875,-1000.7485961914062,374.23870849609375,328.9073791503906
2450,489.9381103515625,-998.1680908203124,379.4296875,330.4743957519531
2451,519.2365112304689,-973.3912353515624,400.9154052734375,342.55426025390625
2452,518.2716064453125,-973.9409790039062,401.6484375,346.9187316894531
2453,492.0773315429688,-991.7803344726562,378.1955261230469,330.8670654296875
2454,491.8492126464844,-987.3597412109376,377.5073852539063,332.2620544433594
2455,513.394775390625,-972.3029174804688,392.3809509277344,341.2490539550781
2456,519.0008544921875,-969.6213989257812,397.6055908203125,338.7994079589844
2457,490.5552062988281,-989.5551147460938,372.8998107910156,328.90362548828125
2458,492.0474243164063,-989.6710205078124,378.5508117675781,323.8285827636719
2459,517.8041381835939,-968.5780029296876,395.945068359375,346.38018798828125
2460,519.4795532226561,-970.8069458007812,394.5762634277344,340.75164794921875
2461,492.9337768554688,-996.2457885742188,378.8612060546875,332.5724792480469
2462,495.7499084472656,-995.5763549804688,376.3629760742188,329.73016357421875
2463,521.3944091796875,-979.6480712890624,395.3915710449219,346.7990417480469
2464,517.1533813476561,-969.81591796875,392.7063293457031,346.6531982421875
2465,493.1357421875,-993.2613525390624,373.0755920410156,327.9275207519531
2466,489.7398986816406,-989.4503784179688,373.7300720214844,325.4442138671875
2467,516.9065551757811,-976.6150512695312,396.9810180664063,343.8557434082031
2468,517.3590698242189,-975.7510986328124,396.7154846191406,345.1647033691406
2469,492.6308288574219,-994.9891357421876,373.5131530761719,331.8544006347656
2470,491.60235595703125,-995.2958374023438,372.1929626464844,332.4378356933594
2471,523.054931640625,-971.3455200195312,398.338623046875,348.4969787597656
2472,515.9940185546875,-974.00830078125,397.3811950683594,350.7969970703125
2473,493.98095703125,-1001.0328369140624,372.6828918457031,327.6844177246094
2474,491.88287353515625,-999.2339477539062,375.252197265625,328.00604248046875
2475,522.3294067382811,-976.0465698242188,397.9795837402344,343.65380859375
2476,521.0166625976561,-972.1271362304688,396.988525390625,346.4961242675781
2477,499.568359375,-998.4074096679688,372.5669555664063,331.7347412109375
2478,501.71881103515625,-1000.6139526367188,376.5723876953125,331.39813232421875
2479,523.8515014648439,-983.01025390625,396.3153381347656,351.1672668457031
2480,522.703369140625,-977.4153442382812,399.8009033203125,348.3249206542969
2481,495.072998046875,-1004.7689819335938,372.5220947265625,337.0678405761719
2482,492.66448974609375,-1005.5132446289062,372.211669921875,335.6728515625
2483,527.1090087890625,-986.8062744140624,397.55322265625,350.0939025878906
2484,523.9412841796875,-983.8629760742188,403.0284423828125,351.24578857421875
2485,501.1578063964844,-1004.6867065429688,383.7791748046875,340.0260925292969
2486,499.0821838378906,-1002.0126953125,376.6285095214844,332.4902038574219
2487,524.7827758789061,-978.279296875,409.78643798828125,347.8312683105469
2488,528.5114135742189,-977.4453125,404.9544982910156,347.3675231933594
2489,498.39776611328125,-999.4733276367188,371.68060302734375,324.9318542480469
2490,495.4619445800781,-999.031982421875,372.9933166503906,323.1067810058594
2491,521.8095703125,-974.6029663085938,392.904541015625,336.50311279296875
2492,524.0572509765625,-977.10498046875,395.5972595214844,346.3502502441406
2493,499.5197448730469,-1000.0455322265624,373.5991821289063,328.136962890625
2494,500.98577880859375,-1000.886962890625,378.1057434082031,333.9786682128906
2495,520.8297119140625,-979.1806030273438,407.0451049804688,350.9840087890625
2496,520.26123046875,-976.9104614257812,402.8152770996094,350.31829833984375
2497,499.8413696289063,-991.3016357421876,386.6177673339844,338.818115234375
2498,501.9768371582031,-1000.8271484375,376.3479919433594,332.51263427734375
2499,526.8359375,-986.1256103515624,399.019287109375,346.7541809082031
2500,523.6234130859375,-984.1284790039062,399.8158874511719,347.8275146484375
2501,494.7999877929688,-995.2509765625,376.7406921386719,329.1242980957031
2502,494.32501220703125,-998.2354125976562,382.7768859863281,331.9740905761719
2503,522.7744140625,-976.7047729492188,399.5802612304688,343.6762390136719
2504,519.2776489257811,-976.2672119140624,403.914794921875,348.0519104003906
2505,495.2076416015625,-1002.1436157226562,381.5950927734375,330.6090393066406
2506,502.197509765625,-999.4321899414062,388.7981262207031,335.34747314453125
2507,524.65185546875,-991.6419677734376,407.9538879394531,350.4716491699219
2508,532.210205078125,-984.5922241210938,409.535888671875,359.52593994140625
2509,505.3128356933594,-1015.2332153320312,387.4742126464844,337.4268493652344
2510,492.66448974609375,-1016.4674072265624,380.4731140136719,330.6688537597656
2511,514.7261962890625,-986.7576293945312,400.4853210449219,348.983154296875
2512,520.4444580078125,-988.2760620117188,398.09552001953125,349.1776428222656
2513,501.2176513671875,-1000.33349609375,375.76458740234375,329.5394287109375
2514,494.0856628417969,-1009.032470703125,370.8204345703125,329.1878662109375
2515,517.4862060546875,-986.1106567382812,394.1611328125,353.0858154296875
2516,521.2335815429689,-983.8853759765624,400.30206298828125,355.5391845703125
2517,498.8652648925781,-1009.8702392578124,381.9429016113281,332.4939270019531
2518,502.2723083496094,-1015.3192749023438,370.8017272949219,330.5679016113281
2519,507.93450927734375,-982.9766235351562,393.7796630859375,342.73004150390625
2520,526.3572387695311,-983.3244018554688,398.8509826660156,353.31396484375
2521,495.3011169433594,-1002.5662231445312,371.29913330078125,333.2830505371094
2522,493.0534362792969,-1005.1616821289062,369.3544006347656,327.774169921875
2523,511.7978210449219,-975.9718017578124,390.3651428222656,344.36810302734375
2524,522.2359008789061,-970.8817749023438,395.9862060546875,350.6399230957031
2525,488.57305908203125,-996.2570190429688,367.985595703125,333.75054931640625
2526,491.1722717285156,-1006.7100219726562,366.1754760742188,325.3619384765625
2527,511.25927734375,-987.24755859375,380.8807678222656,341.4771728515625
2528,514.62890625,-980.7289428710938,395.7468566894531,353.11199951171875
2529,495.17022705078125,-1003.983642578125,379.3174743652344,337.37451171875
2530,500.8960266113281,-996.7207641601562,380.9480895996094,338.3768005371094
2531,518.2678833007811,-982.9242553710938,397.4747009277344,348.7662353515625
2532,516.1959228515625,-980.6354370117188,396.1283264160156,353.95721435546875
2533,496.3034362792969,-998.78515625,369.1187744140625,336.18896484375
2534,489.7548522949219,-1002.9888305664062,365.954833984375,327.280517578125
2535,517.1346435546875,-980.8897705078124,393.244873046875,347.00848388671875
2536,512.5346069335939,-986.41357421875,389.6844787597656,340.7628479003906
2537,489.84088134765625,-1006.8072509765624,375.6561279296875,329.4982604980469
2538,485.49884033203125,-1002.753173828125,372.69036865234375,330.04803466796875
2539,509.7371520996094,-978.3353881835938,391.543212890625,344.8094177246094
2540,514.0455322265625,-981.3646850585938,393.31591796875,344.9403076171875
2541,499.6917724609375,-1003.6619873046876,375.42425537109375,332.867919921875
2542,489.66510009765625,-999.443359375,370.510009765625,331.5215759277344
2543,518.9896850585939,-979.4124755859376,399.5353698730469,346.8102722167969
2544,522.198486328125,-985.3963012695312,400.39556884765625,346.00244140625
2545,495.0655212402344,-1002.6260375976562,379.5718078613281,333.36907958984375
2546,493.1544189453125,-997.3789672851562,382.7619323730469,335.6653747558594
2547,519.3300170898439,-980.474609375,401.1023864746094,352.68939208984375
2548,524.2965698242189,-974.7750244140624,411.6077880859375,360.696533203125
2549,492.7579956054688,-998.6130981445312,385.07318115234375,340.2878723144531
2550,506.3712463378906,-1001.8518676757812,387.5751953125,338.2832946777344
2551,523.2381591796875,-986.1854248046876,405.1601867675781,354.6827697753906
2552,522.2171630859375,-981.7050170898438,406.1699523925781,356.201171875
2553,496.6587219238281,-1006.9830322265624,382.7320251464844,341.0545654296875
2554,502.5752258300781,-996.1971435546876,387.0553283691406,338.35809326171875
2555,516.588623046875,-986.013427734375,400.3506774902344,343.87445068359375
2556,525.732666015625,-979.5433959960938,407.0824890136719,353.126953125
2557,501.27001953125,-1004.70166015625,379.3810729980469,335.59429931640625
2558,497.8442687988281,-1002.3679809570312,376.0749816894531,340.00738525390625
2559,519.1205444335939,-986.5594482421876,394.3818054199219,356.8107604980469
2560,519.25146484375,-987.0306396484376,398.60040283203125,356.9042663574219
2561,503.8355712890625,-1009.043701171875,385.1554565429688,344.9590148925781
2562,489.0031433105469,-1010.3078002929688,383.6295776367188,340.5571594238281
2563,520.1527709960939,-991.896240234375,402.68438720703125,358.127197265625
2564,516.1735229492189,-991.6531982421876,401.7531433105469,360.7339172363281
2565,497.2870178222656,-1008.5313110351562,385.6453857421875,338.1711120605469
2566,489.4107971191406,-1004.4847412109376,381.65118408203125,336.1328430175781
2567,520.9830322265625,-984.947509765625,402.4263305664063,349.96673583984375
2568,509.5912780761719,-983.5936889648438,404.3897705078125,356.4442443847656
2569,489.84088134765625,-1005.7713012695312,382.552490234375,341.5220642089844
2570,493.8276062011719,-1006.661376953125,381.2510070800781,335.8448791503906
2571,516.7494506835939,-984.5436401367188,406.22607421875,353.1344299316406
2572,520.7212524414061,-985.5608520507812,406.3045959472656,355.3783874511719
2573,499.3402099609375,-1008.10498046875,388.3493347167969,337.4044189453125
2574,488.6515808105469,-1006.3472290039062,376.7257385253906,329.89471435546875
2575,523.6832275390625,-981.353515625,402.5160827636719,354.2788391113281
2576,517.8864135742189,-983.4141845703124,398.8472290039063,347.9546813964844
2577,499.23175048828125,-1004.0098266601562,380.66009521484375,340.0934143066406
2578,493.722900390625,-1007.6561889648438,378.9584655761719,336.36474609375
2579,517.1608276367189,-989.2109985351562,398.3685302734375,350.2098388671875
2580,520.42578125,-985.0485229492188,407.15728759765625,356.9491271972656
2581,497.51513671875,-1005.1654052734376,382.9489135742188,341.6866149902344
2582,500.2078857421875,-1005.651611328125,380.4768371582031,336.6227722167969
2583,520.0667724609375,-974.8123779296876,400.3207702636719,355.2026062011719
2584,521.4879150390625,-983.3880004882812,397.5943603515625,350.4866027832031
2585,497.7919006347656,-1001.1300659179688,383.3341369628906,337.6250915527344
2586,496.27349853515625,-1004.8662109375,377.45501708984375,336.0767517089844
2587,524.0796508789061,-982.105224609375,404.9844055175781,354.2938232421875
2588,513.7313842773439,-988.1937866210938,402.84893798828125,353.7029113769531
2589,501.1129455566406,-1009.3541259765624,387.56768798828125,345.7481384277344
2590,497.0065307617188,-1004.8139038085938,383.1246948242188,336.1328430175781
2591,522.8716430664061,-982.587646484375,402.7703857421875,351.8479309082031
2592,528.795654296875,-975.3845825195312,400.35443115234375,348.971923828125
2593,496.7933654785156,-1000.4344482421876,373.91705322265625,330.3023681640625
2594,496.0042419433594,-996.836669921875,375.6075134277344,331.7684020996094
2595,515.6162719726561,-981.8508911132812,397.1119384765625,345.69952392578125
2596,522.572509765625,-978.8627319335938,404.37481689453125,349.4244689941406
2597,489.1864013671875,-1000.5242309570312,378.2254333496094,330.6277160644531
2598,486.84521484375,-999.9782104492188,374.3845520019531,326.0463562011719
2599,518.3576049804689,-978.7916870117188,394.35186767578125,342.93572998046875
2600,520.41455078125,-980.1641845703124,392.81103515625,348.994384765625
2601,496.7110595703125,-1002.7008666992188,372.14434814453125,331.33831787109375
2602,499.9722595214844,-1007.3270874023438,376.284423828125,332.26580810546875
2603,520.7623901367189,-987.3934326171876,399.0529479980469,349.3833312988281
2604,523.922607421875,-987.8609008789062,399.6401062011719,345.2170715332031
2605,504.217041015625,-1004.2753295898438,380.95928955078125,338.83306884765625
2606,498.1995544433594,-1008.7819213867188,383.4986877441406,332.3144226074219
2607,522.9651489257811,-983.5450439453124,399.8009033203125,348.28753662109375
2608,526.7349853515625,-982.247314453125,400.9527893066406,356.09271240234375
2609,496.950439453125,-1007.3383178710938,380.0692138671875,335.3848876953125
2610,493.80889892578125,-1007.3345947265624,378.7714538574219,339.0163269042969
2611,512.3326416015625,-983.6759643554688,399.172607421875,352.26678466796875
2612,509.7221984863281,-984.3641357421876,394.1798400878906,347.1655578613281
2613,492.197021484375,-1000.140869140625,379.4708251953125,338.8405456542969
2614,487.5632629394531,-1004.411865234375,374.6687927246094,334.1170654296875
2615,518.23046875,-992.511474609375,396.6743469238281,350.03033447265625
2616,518.4099731445311,-985.3607788085938,394.6585388183594,345.6509094238281
2617,497.7619934082031,-1008.0806884765624,370.9476013183594,335.6728515625
2618,500.2565002441406,-1010.635009765625,372.71282958984375,331.86187744140625
2619,525.4409790039061,-983.0345458984376,394.6361083984375,347.0533752441406
2620,512.7515258789061,-981.4563598632812,389.1534118652344,345.77056884765625
2621,490.4242858886719,-1000.5335693359376,376.3143310546875,333.8590087890625
2622,491.3218688964844,-1004.0827026367188,374.6575622558594,332.6398010253906
2623,515.2908935546875,-985.4542846679688,390.4923095703125,344.7907409667969
2624,511.8501892089844,-983.6217651367188,397.1081848144531,348.58673095703125
2625,493.4237060546875,-1007.9049072265624,382.7357482910156,330.8782958984375
2626,485.1024169921875,-999.6098022460938,376.20587158203125,326.951416015625
2627,514.6775512695311,-977.8211669921876,399.3558654785156,346.6419677734375
2628,516.6297607421875,-979.0814819335938,400.95654296875,355.8421325683594
2629,493.0384826660156,-998.6898193359376,382.4477844238281,339.5473937988281
2630,489.4668884277344,-1001.0534057617188,377.08477783203125,335.3699035644531
2631,507.3623046875,-984.0069580078124,398.91455078125,351.58612060546875
2632,520.7511596679689,-985.3009643554688,397.1044616699219,352.0947570800781
2633,491.5200805664063,-1004.2958984375,371.0822143554688,335.5045471191406
2634,490.143798828125,-1006.8577270507812,374.69122314453125,333.4737854003906
2635,514.886962890625,-982.6830444335938,392.1191711425781,344.1175537109375
2636,522.9577026367189,-980.8168334960938,400.83685302734375,351.75067138671875
2637,488.9507751464844,-1001.0272216796876,385.94085693359375,336.06927490234375
2638,488.4571228027344,-1007.1083374023438,380.7274169921875,332.97637939453125
2639,516.7420043945311,-984.6913452148438,403.5445556640625,348.8111267089844
2640,514.382080078125,-985.4131469726562,403.04339599609375,353.3663024902344
2641,494.31005859375,-1004.4530029296876,385.9595336914063,341.3948974609375
2642,486.8227844238281,-1005.4851684570312,377.4624938964844,331.66741943359375
2643,508.2000427246094,-983.5170288085938,394.92034912109375,348.6241149902344
2644,515.3993530273439,-985.84326171875,398.2750244140625,346.99725341796875
2645,489.134033203125,-1007.1195068359376,371.4038696289063,327.47125244140625
2646,495.0542907714844,-1006.573486328125,368.303466796875,329.85357666015625
2647,521.8731079101561,-979.8145141601562,387.0516052246094,346.2679748535156
2648,520.4556884765625,-976.3327026367188,389.9986267089844,346.7429504394531
2649,497.6161193847656,-1000.6046142578124,371.2392883300781,329.322509765625
2650,491.60235595703125,-998.5364379882812,370.00140380859375,328.5820007324219
2651,506.3338317871094,-977.4135131835938,391.0570373535156,342.8272705078125
2652,519.8797607421875,-979.470458984375,404.606689453125,352.4276123046875
2653,491.011474609375,-1004.4903564453124,383.7791748046875,335.3250427246094
2654,489.638916015625,-1009.471923828125,384.6991882324219,335.8037414550781
2655,515.6985473632811,-991.6026611328124,401.6820983886719,352.8427429199219
2656,526.9032592773439,-989.4298095703124,411.2375183105469,360.95831298828125
2657,490.8544006347656,-1009.8047485351562,383.0498962402344,338.9527282714844
2658,491.7744140625,-1010.59765625,380.2225341796875,340.321533203125
2659,513.8360595703125,-990.4395751953124,399.7560424804688,353.2728271484375
2660,522.5949096679689,-980.9290161132812,401.73443603515625,355.415771484375
2661,497.2309265136719,-1006.3603515625,380.77978515625,333.1596374511719
2662,493.042236328125,-1013.4736328125,372.7464904785156,331.80206298828125
2663,516.2296142578125,-984.5679321289062,391.7414245605469,346.1856994628906
2664,516.166015625,-983.2814331054688,395.86279296875,343.0479431152344
2665,494.1417541503906,-1005.563720703125,380.4843444824219,334.6929931640625
2666,493.0571899414063,-1006.8128662109376,373.6964111328125,328.8363037109375
2667,509.5538940429688,-982.9522705078124,393.6412963867188,348.6091613769531
2668,513.0282592773439,-984.9194946289062,395.1746520996094,346.2530212402344
2669,495.2151184082031,-1009.3110961914062,378.2216796875,330.23876953125
2670,480.999755859375,-1009.5130615234376,371.3365478515625,332.44158935546875
2671,513.7388305664061,-988.1171264648438,401.5511779785156,349.46185302734375
2672,512.9572143554689,-981.1085205078124,399.9430236816406,347.6704406738281
2673,492.3690490722656,-1002.5755615234376,378.6704711914063,332.59490966796875
2674,492.9599609375,-1007.8001708984376,373.3336486816406,328.7839660644531
2675,519.509521484375,-984.0405883789062,392.0668029785156,342.7337951660156
2676,519.546875,-993.2819213867188,394.4117126464844,344.8056945800781
2677,499.0185852050781,-1012.9425659179688,374.5491027832031,328.0247497558594
2678,498.9998779296875,-999.998779296875,377.458740234375,330.2051086425781
2679,522.4864501953125,-981.5984497070312,397.1194152832031,347.8387451171875
2680,524.5359497070311,-979.2797241210938,402.6133117675781,353.2915344238281
2681,493.1581726074219,-1006.2593383789062,378.92852783203125,333.50372314453125
2682,490.31585693359375,-1011.2184448242188,371.7105407714844,329.8460998535156
2683,511.6445007324219,-988.2105712890624,393.6487731933594,344.5738220214844
2684,517.9312744140625,-988.3377685546876,395.2532043457031,346.6494445800781
2685,500.9820251464844,-1005.6497192382812,376.8416748046875,335.403564453125
2686,495.2936401367188,-1003.7236938476562,375.6411743164063,332.45654296875
2687,507.8559875488281,-991.7073974609376,394.7183837890625,342.1241760253906
2688,516.1099243164061,-990.58544921875,403.6530151367188,350.2995910644531
2689,497.1823120117188,-1011.4091796875,377.91876220703125,337.3558044433594
2690,493.6032104492188,-1014.3487548828124,379.5306701660156,331.6898498535156
2691,511.1957092285156,-993.7568969726562,398.3086853027344,350.1238098144531
2692,516.0650634765625,-990.8359985351562,398.4134216308594,346.7130432128906
2693,490.4617004394531,-1009.3447875976562,373.68145751953125,327.7816467285156
2694,490.5252685546875,-1007.86376953125,372.9222412109375,327.8452453613281
2695,515.073974609375,-987.6121826171876,390.03228759765625,339.7268981933594
2696,513.4695434570311,-982.6904907226562,391.0046691894531,340.2093505859375
2697,489.6314392089844,-1000.6868896484376,366.9122314453125,326.2296142578125
2698,481.78887939453125,-1008.3424682617188,366.3624572753906,320.21209716796875
2699,516.1211547851561,-978.015625,394.8642578125,336.5928649902344
2700,521.24853515625,-983.44970703125,391.8386535644531,340.07098388671875
2701,497.5675048828125,-1004.1350708007812,376.800537109375,332.0451354980469
2702,502.5191345214844,-1003.6414184570312,376.6285095214844,329.38983154296875
2703,521.7572021484375,-987.9824829101562,395.3167724609375,343.9791564941406
2704,520.23876953125,-989.4335327148438,394.6323852539063,343.36956787109375
2705,493.6593017578125,-1012.93505859375,371.7030334472656,327.0561218261719
2706,494.6877746582031,-1008.2078247070312,369.9153747558594,324.5092468261719
2707,512.4971923828125,-985.0092163085938,391.9097290039063,337.16131591796875
2708,517.6395263671875,-986.2135009765624,386.2437744140625,336.66766357421875
2709,492.0997619628906,-1000.4550170898438,363.7894287109375,321.1059265136719
2710,492.8215637207031,-1005.9564208984376,364.6234130859375,320.6908264160156
2711,512.08203125,-981.665771484375,393.82080078125,341.70904541015625
2712,515.8107299804689,-990.57421875,401.0724792480469,349.67877197265625
2713,494.9159240722656,-1005.5113525390624,378.1169738769531,335.74017333984375
2714,494.5643615722656,-1010.9230346679688,383.89886474609375,340.9797668457031
2715,518.7091674804689,-993.1846313476562,402.400146484375,353.1980285644531
2716,518.9260864257811,-989.87109375,405.5154724121094,352.5024108886719
2717,498.3453979492188,-1011.0763549804688,383.3640441894531,337.25482177734375
2718,495.0655212402344,-1013.4137573242188,380.9256286621094,334.053466796875
2719,524.2554321289061,-995.1705322265624,399.12774658203125,344.3569030761719
2720,527.785888671875,-995.3612670898438,403.5108947753906,349.28607177734375
2721,503.1698913574219,-1012.4189453125,382.2570495605469,326.764404296875
2722,495.2562561035156,-1015.7025756835938,379.6316223144531,327.36279296875
2723,519.969482421875,-987.8814697265624,400.3506774902344,346.6307678222656
2724,523.2119750976561,-985.8357543945312,403.85870361328125,344.5401611328125
2725,494.37738037109375,-1006.4238891601562,387.83697509765625,328.9522399902344
2726,493.1843566894531,-1009.4644165039062,385.5257263183594,329.21405029296875
2727,524.30029296875,-980.4652709960938,410.7588195800781,350.8194580078125
2728,514.5130004882811,-989.1567993164062,397.45599365234375,346.5671691894531
2729,494.58306884765625,-1006.6931762695312,379.4035034179688,332.879150390625
2730,495.0505676269531,-1015.13037109375,380.64141845703125,332.59490966796875
2731,514.0230712890625,-991.24365234375,402.3029174804688,347.21417236328125
2732,516.9962768554689,-990.1665649414062,403.35382080078125,347.98834228515625
2733,490.7122802734375,-1015.6951293945312,378.9509582519531,325.2048645019531
2734,485.7008056640625,-1008.7725830078124,377.0324096679688,327.0748291015625
2735,509.5052795410156,-984.6988525390624,394.4827880859375,345.28814697265625
2736,510.9152221679688,-981.0972900390624,395.4626159667969,342.3710021972656
2737,483.7635498046875,-996.595458984375,380.70123291015625,334.1656799316406
2738,486.2356262207031,-994.5198364257812,373.7038879394531,328.5146789550781
2739,504.9613037109375,-968.7817993164062,395.8665466308594,346.70556640625
2740,510.0774841308594,-970.7116088867188,404.0494384765625,359.5408935546875
2741,484.3731384277344,-994.80029296875,382.9713745117188,343.33966064453125
2742,481.504638671875,-997.82958984375,378.3899841308594,337.8083190917969
2743,511.93994140625,-974.5076293945312,401.49884033203125,347.0645751953125
2744,513.6041870117189,-976.7739868164062,403.256591796875,353.407470703125
2745,484.4442138671875,-1000.997314453125,381.7558898925781,332.4453125
2746,491.80059814453125,-1005.2421264648438,383.1583557128906,331.12139892578125
2747,512.5346069335939,-984.13037109375,405.38458251953125,347.73028564453125
2748,515.3058471679689,-988.966064453125,398.8509826660156,351.6646728515625
2749,493.0833740234375,-1003.5740966796876,373.6739807128906,324.66259765625
2750,495.6077880859375,-1003.2936401367188,378.40869140625,330.5491943359375
2751,516.4876708984375,-983.3150634765624,401.4539489746094,350.7783203125
2752,515.5863647460939,-982.06591796875,400.7919921875,347.4348449707031
2753,489.28363037109375,-1008.2340087890624,379.82611083984375,334.6817626953125
2754,488.4833068847656,-1007.2504272460938,376.59857177734375,334.2890930175781
2755,510.2420349121094,-983.3375244140624,393.4842224121094,348.5530700683594
2756,513.9520263671875,-976.6618041992188,388.10626220703125,351.1298522949219
2757,488.1055603027344,-999.23583984375,368.6064147949219,328.48101806640625
2758,490.3756713867188,-1004.071533203125,370.7194519042969,329.9994201660156
2759,515.9640502929689,-984.036865234375,392.2201232910156,342.7637023925781
2760,521.2335815429689,-984.0855102539062,401.4464721679688,345.48260498046875
2761,496.8756408691406,-1006.3004760742188,382.1336364746094,333.50372314453125
2762,488.617919921875,-1007.2691040039062,375.7159729003906,333.2120056152344
2763,521.0316162109375,-986.85302734375,402.4450378417969,346.5409851074219
2764,526.974365234375,-986.2695922851562,401.5362243652344,351.45147705078125
2765,494.7925109863281,-1003.3048095703124,379.66156005859375,339.734375
2766,491.9464416503906,-1004.5576782226562,379.2464294433594,335.9608154296875
2767,512.9235229492189,-981.3403930664062,398.4208984375,355.4195251464844
2768,507.9794006347656,-978.3746337890624,396.41632080078125,354.241455078125
2769,484.8106994628906,-996.5169067382812,374.9866638183594,337.37823486328125
2770,488.95452880859375,-1001.7789306640624,372.6567077636719,336.1852111816406
2771,502.5640258789063,-979.3507690429688,394.5164489746094,353.7178649902344
2772,517.3067016601561,-975.562255859375,401.3492431640625,358.149658203125
2773,488.35986328125,-1002.3848266601562,380.9443359375,341.4397888183594
2774,488.793701171875,-1007.5870361328124,376.6995544433594,335.8037414550781
2775,514.2213134765625,-983.872314453125,399.8719787597656,348.4595642089844
2776,519.2701416015625,-972.7498779296876,404.5580749511719,356.4816589355469
2777,492.09228515625,-997.100341796875,379.7924499511719,338.56005859375
2778,498.1995544433594,-1001.7340698242188,381.0415649414063,335.0445556640625
2779,516.117431640625,-987.9600219726562,395.5860595703125,346.9112548828125
2780,518.4249267578125,-983.027099609375,398.7724304199219,349.6114501953125
2781,498.7642822265625,-1008.4883422851562,374.2798461914063,336.705078125
2782,486.7591857910156,-1005.9713745117188,366.62799072265625,327.0411682128906
2783,513.2152709960939,-985.3421020507812,393.0466613769531,343.0068054199219
2784,511.012451171875,-980.7307739257812,394.781982421875,345.1460266113281
2785,491.2395935058594,-997.4369506835938,373.7038879394531,328.8251037597656
2786,487.9709167480469,-1001.195556640625,371.6880798339844,329.7039794921875
2787,511.2293701171875,-980.5774536132812,396.6145324707031,352.26678466796875
2788,518.9746704101561,-978.5055541992188,405.2349853515625,352.3004455566406
2789,499.0223388671875,-998.7047729492188,380.7311706542969,331.40936279296875
2790,497.8367919921875,-999.6060791015624,379.0444641113281,328.0097961425781
2791,518.4735717773439,-981.7966918945312,399.7298583984375,345.942626953125
2792,515.5003051757811,-974.0924682617188,400.7994689941406,352.6968688964844
2793,499.4898071289063,-996.1691284179688,378.8088684082031,332.8604431152344
2794,498.4837951660156,-997.5902709960938,375.58880615234375,329.9732360839844
2795,517.938720703125,-983.9583129882812,396.7641296386719,343.01800537109375
2796,520.7847900390625,-984.3435668945312,392.88958740234375,344.93658447265625
2797,498.5660705566406,-1002.9981689453124,377.6046142578125,328.537109375
2798,492.185791015625,-1001.5919799804688,370.7381591796875,321.6519775390625
2799,522.9352416992189,-974.9376831054688,390.6606140136719,340.0859375
2800,517.23193359375,-967.5663452148438,395.2943420410156,345.78179931640625
2801,493.2853393554688,-1000.2081909179688,369.91162109375,326.80181884765625
2802,494.7139587402344,-995.080810546875,380.791015625,332.3406066894531
2803,510.5973205566406,-975.80908203125,399.759765625,346.6980895996094
2804,515.8369140625,-968.1722412109376,406.6000671386719,352.9923400878906
2805,492.010009765625,-990.667724609375,381.3744201660156,336.2899475097656
2806,490.1849365234375,-998.0390625,373.2962341308594,329.55810546875
2807,520.8558959960939,-967.8767700195312,398.1703186035156,342.67767333984375
2808,522.1199340820311,-965.8161010742188,395.18212890625,343.65380859375
2809,497.5076599121094,-986.4116821289062,376.4265441894531,331.84320068359375
2810,498.0910949707031,-988.2667236328124,373.3224182128906,320.78057861328125
2811,522.527587890625,-971.3810424804688,394.1274719238281,344.7795104980469
2812,518.136962890625,-974.728271484375,397.0221557617188,345.5948181152344
2813,495.7087707519531,-993.3641967773438,373.2775573730469,329.8049621582031
2814,502.6705932617188,-991.4063110351562,373.1597290039063,332.30694580078125
2815,514.1857299804689,-970.1300659179688,398.0225830078125,354.2751159667969
2816,517.5591430664061,-968.7051391601562,392.6483459472656,347.9659118652344
2817,494.92901611328125,-994.454345703125,374.2667541503906,330.76983642578125
2818,487.0939331054688,-996.3467407226562,368.55218505859375,326.7045593261719
2819,512.4990844726561,-973.0845947265624,391.8442687988281,348.2389221191406
2820,517.9929809570311,-974.1728515625,394.15179443359375,344.0726623535156
2821,497.872314453125,-991.2230834960938,374.2518005371094,331.2261047363281
2822,492.8159790039063,-989.6785278320312,369.89105224609375,329.6291809082031
2823,520.2631225585939,-971.9140014648438,391.8629760742188,342.8833923339844
2824,519.2159423828125,-968.9332885742188,399.24554443359375,348.8597412109375
2825,504.98187255859375,-988.96044921875,378.85186767578125,331.4766845703125
2826,492.4457092285156,-991.3053588867188,378.08892822265625,324.6102294921875
2827,524.6312866210939,-973.1481323242188,401.6390686035156,350.520263671875
2828,527.7354125976561,-976.1625366210938,398.7331848144531,348.57550048828125
2829,497.9171752929688,-992.0271606445312,373.5374755859375,329.0046081542969
2830,494.9925842285156,-985.9984741210938,369.6741638183594,327.6732177734375
2831,513.74072265625,-971.8728637695312,388.2689208984375,344.240966796875
2832,510.7936706542969,-960.3053588867188,391.2982482910156,346.787841796875
2833,488.9937744140625,-984.6932373046876,375.1231994628906,333.7318420410156
2834,489.3902282714844,-982.939208984375,376.7313537597656,333.5971984863281
2835,514.7691650390625,-970.4816284179688,394.2415466308594,347.0982360839844
2836,519.8292846679689,-973.6044311523438,394.9035034179688,352.1770324707031
2837,498.5679321289063,-989.4129638671876,376.7163696289063,336.8621520996094
2838,490.2466430664063,-986.4472045898438,372.7333984375,330.1265869140625
2839,514.152099609375,-962.470703125,392.2593994140625,347.78265380859375
2840,515.984619140625,-961.6554565429688,394.7576599121094,349.13275146484375
2841,490.9721984863281,-987.27001953125,378.3993225097656,333.559814453125
2842,494.08380126953125,-992.6666870117188,377.146484375,335.7588806152344
2843,510.18780517578125,-976.4691772460938,394.0545654296875,350.82318115234375
2844,517.8284301757811,-973.1519165039062,395.7001037597656,352.6557312011719
2845,495.95001220703125,-989.4840087890624,375.9833679199219,336.73870849609375
2846,490.9796752929688,-995.1911010742188,373.3766479492188,333.724365234375
2847,513.6808471679689,-971.82421875,388.4484558105469,347.0047607421875
2848,516.1155395507811,-968.3012084960938,393.3664245605469,353.1494140625
2849,484.9509582519531,-990.8117065429688,374.42755126953125,331.9815673828125
2850,490.0222473144531,-991.9822998046876,371.5328674316406,333.0474548339844
2851,516.6428833007811,-972.7778930664062,391.7320861816406,351.5711669921875
2852,515.3974609375,-973.7764282226562,397.25592041015625,359.4286804199219
2853,490.34014892578125,-999.3311767578124,375.8599548339844,341.2490539550781
2854,491.49951171875,-997.7567138671876,375.67669677734375,340.57586669921875
2855,519.6647338867189,-972.5609741210938,402.73486328125,350.94287109375
2856,520.7455444335939,-981.4806518554688,405.2742614746094,361.9830322265625
2857,497.9770202636719,-1002.3717041015624,382.4159851074219,346.2193603515625
2858,487.4192810058594,-1000.7710571289062,376.383544921875,343.1788330078125
2859,518.3108520507811,-981.8920288085938,400.0832824707031,356.9042663574219
2860,521.3663330078125,-976.57763671875,402.5404052734375,355.5803527832031
2861,484.4460754394531,-994.2261962890624,380.9910888671875,335.9496154785156
2862,489.0835571289063,-994.68994140625,381.7577819824219,340.30657958984375
2863,511.0143127441406,-975.0218505859376,395.5916442871094,352.53607177734375
2864,515.7789306640625,-972.3665161132812,399.5484619140625,354.5780334472656
2865,494.73828125,-989.2035522460938,379.9962768554688,341.1854553222656
2866,489.5173645019531,-993.7699584960938,371.42816162109375,329.55438232421875
2867,515.595703125,-975.3621826171876,391.2309265136719,345.2843933105469
2868,522.1292724609375,-971.4277954101562,397.7570495605469,353.9534912109375
2869,493.8481750488281,-995.0602416992188,371.7872009277344,336.095458984375
2870,494.8729248046875,-992.3226318359376,375.10821533203125,336.0879821777344
2871,514.4026489257811,-976.858154296875,390.6661987304688,349.3421936035156
2872,510.01202392578125,-977.8865966796876,388.8673095703125,347.8387451171875
2873,491.7650451660156,-991.5820922851562,373.41778564453125,334.4237365722656
2874,484.5694885253906,-992.8985595703124,367.7630615234375,328.32769775390625
2875,510.9694519042969,-967.4111328125,397.2895812988281,347.0870361328125
2876,513.4751586914061,-968.832275390625,393.0672302246094,352.5323181152344
2877,492.1614990234375,-985.7965087890624,373.3280334472656,337.4866943359375
2878,493.283447265625,-986.4584350585938,374.42755126953125,329.4683532714844
2879,511.9679870605469,-969.5279541015624,392.0986022949219,345.7780456542969
2880,514.2979736328125,-970.380615234375,395.51312255859375,346.765380859375
2881,497.4122924804688,-989.865478515625,374.9586181640625,332.9988098144531
2882,485.0070495605469,-997.4275512695312,369.1169128417969,331.96661376953125
2883,514.810302734375,-974.5505981445312,394.35748291015625,349.5478820800781
2884,515.9771728515625,-973.8512573242188,392.7007141113281,347.1917419433594
2885,483.4998779296875,-993.52685546875,371.9966430664063,330.68756103515625
2886,480.8258361816406,-992.5694580078124,363.6529235839844,324.8495788574219
2887,506.5900268554688,-973.52587890625,383.5192565917969,342.890869140625
2888,519.14111328125,-974.3150024414062,388.48583984375,344.5289306640625
2889,487.11260986328125,-997.8165283203124,376.9931335449219,331.6038513183594
2890,486.64886474609375,-995.2322387695312,365.9118041992188,331.43927001953125
2891,514.4961547851561,-975.0330810546876,394.8923034667969,350.7184753417969
2892,511.34716796875,-973.2191772460938,396.6163940429688,351.7992858886719
2893,493.6574401855469,-991.2866821289062,376.37603759765625,337.8045959472656
2894,492.2437744140625,-995.72216796875,371.5216674804688,331.0091857910156
2895,514.2493286132811,-975.2686767578124,394.2976379394531,353.0072937011719
2896,509.4772338867188,-967.7664184570312,394.7015686035156,352.0050048828125
2897,493.1226501464844,-988.47802734375,380.4114074707031,342.4532775878906
2898,489.6894226074219,-998.2877807617188,379.2071533203125,334.5508728027344
2899,515.2740478515625,-980.5755615234376,397.99267578125,345.90521240234375
2900,508.14581298828125,-972.280517578125,392.992431640625,342.7562255859375
2901,486.7498474121094,-984.1995239257812,376.5406188964844,335.19415283203125
2902,484.9621887207031,-988.6837158203124,370.1379089355469,327.7517395019531
2903,506.4479064941406,-966.7940673828124,385.3406066894531,336.5666809082031
2904,512.0951538085939,-966.5621948242188,383.58282470703125,340.1869201660156
2905,488.9339599609375,-980.0968627929688,368.0659790039063,328.0621643066406
2906,487.15374755859375,-987.8160400390624,361.794189453125,322.62060546875
2907,504.9220275878906,-971.4502563476562,384.083984375,336.5218200683594
2908,512.4541625976561,-959.4601440429688,392.1846008300781,347.8013610839844
2909,490.2728271484375,-981.9593505859376,374.7379760742188,332.3031921386719
2910,485.6353454589844,-988.0927734375,364.7973327636719,330.9119567871094
2911,508.2093811035156,-964.6884765625,383.8034973144531,344.08013916015625
2912,510.6889343261719,-967.9309692382812,391.7096557617188,348.0332336425781
2913,481.6224365234375,-992.5657348632812,367.3442077636719,325.55267333984375
2914,479.2139587402344,-987.8085327148438,361.7530517578125,326.0874938964844
2915,505.0230102539063,-963.3720703125,383.9007263183594,340.3140563964844
2916,500.6174011230469,-960.1594848632812,382.0831298828125,340.1270751953125
2917,487.4080810546875,-978.3241577148438,370.6315612792969,326.1996765136719
2918,480.3583679199219,-984.0162963867188,362.6581115722656,320.3691711425781
2919,506.8892211914063,-968.031982421875,389.2301025390625,338.90411376953125
2920,513.9912719726561,-967.1194458007812,393.568359375,343.8146057128906
2921,487.1313171386719,-993.9981079101562,372.8717651367188,330.3846435546875
2922,485.9644775390625,-990.7481079101562,370.5754699707031,328.2828063964844
2923,508.6843566894531,-974.1616821289062,390.85693359375,347.3301086425781
2924,510.2663269042969,-971.1510620117188,390.8606872558594,348.19403076171875
2925,489.6221008300781,-987.1802368164062,374.2929382324219,331.611328125
2926,482.8416442871094,-990.4788208007812,363.9670715332031,327.93499755859375
2927,514.5709838867189,-971.5362548828124,389.776123046875,343.9380187988281
2928,511.5079956054688,-970.238525390625,395.68890380859375,350.6661071777344
2929,479.0980224609375,-994.1514282226562,363.0582580566406,326.4839172363281
2930,479.550537109375,-992.1131591796876,360.4964294433594,324.5204772949219
2931,505.7335815429688,-963.525390625,382.57305908203125,337.2997131347656
2932,509.5033874511719,-971.3941650390624,392.9213562011719,340.8414001464844
2933,490.4598388671875,-990.9762573242188,373.5748596191406,332.97265625
2934,490.4037170410156,-988.5902099609376,366.98516845703125,320.2008972167969
2935,509.66046142578125,-975.2574462890624,386.15216064453125,339.24072265625
2936,520.0835571289061,-969.79345703125,396.6163940429688,347.90606689453125
2937,490.1082763671875,-993.642822265625,373.8815307617188,332.3406066894531
2938,491.5593566894531,-992.2216186523438,372.90167236328125,332.527587890625
2939,512.73095703125,-974.064453125,387.9435729980469,344.0315246582031
2940,516.6353759765625,-973.0284423828124,392.1509399414063,347.9546813964844
2941,500.34063720703125,-993.8372802734376,374.83148193359375,335.2951354980469
2942,493.3993835449219,-998.9758911132812,374.82025146484375,328.3613586425781
2943,516.545654296875,-976.2784423828124,399.9449157714844,348.44085693359375
2944,514.234375,-967.3924560546876,399.4175720214844,355.28863525390625
2945,494.0239562988281,-993.7213134765624,380.1795349121094,342.21392822265625
2946,481.932861328125,-995.9951782226562,377.9281005859375,334.9435729980469
2947,510.55804443359375,-979.9061279296876,398.9538269042969,346.81402587890625
2948,511.6351318359375,-973.5183715820312,400.41986083984375,349.58526611328125
2949,492.5093078613281,-991.2754516601562,379.775634765625,333.5523376464844
2950,491.4883117675781,-992.3338623046876,376.7575073242188,327.6694641113281
2951,511.0965881347656,-980.8112182617188,398.2806396484375,346.6644287109375
2952,520.5660400390625,-980.3549194335938,396.6500549316406,345.00390625
2953,499.1214294433594,-1003.5236206054688,376.67523193359375,335.7588806152344
2954,495.42266845703125,-999.3984985351562,372.21728515625,326.88409423828125
2955,515.3862915039061,-985.2953491210938,395.4645080566406,347.2441101074219
2956,517.4132690429689,-979.7528076171876,398.72943115234375,348.912109375
2957,495.994873046875,-1001.18994140625,382.3187561035156,336.3834228515625
2958,486.0804138183594,-1002.9215087890624,379.4726867675781,331.0653076171875
2959,511.71368408203125,-981.6975708007812,401.4969482421875,348.2015075683594
2960,518.2772216796875,-984.4949951171876,404.0887145996094,349.8096618652344
2961,500.1798400878906,-996.1223754882812,385.2433471679688,342.5804443359375
2962,500.4565734863281,-1011.2091064453124,378.2085876464844,330.9792785644531
2963,518.4530029296875,-986.5332641601562,402.0354919433594,350.1462707519531
2964,523.9693603515625,-982.6437377929688,406.2952575683594,352.6931457519531
2965,496.4773254394531,-1007.8319702148438,382.4683532714844,331.8880615234375
2966,502.6743469238281,-1004.0995483398438,381.9298095703125,334.4424133300781
2967,524.7023315429689,-981.5442504882812,397.9178771972656,348.5829772949219
2968,526.3554077148439,-983.7021484375,397.7645263671875,351.3766784667969
2969,500.1461791992188,-1003.9275512695312,378.7471618652344,335.39984130859375
2970,498.3809509277344,-1005.0008544921876,379.5699157714844,336.6227722167969
2971,516.7064208984375,-983.279541015625,404.2383117675781,350.3519592285156
2972,519.6871337890625,-979.5284423828124,408.8309020996094,357.14361572265625
2973,501.4364318847656,-993.3248901367188,391.2571105957031,344.8505554199219
2974,492.3484802246094,-1000.9542846679688,380.63580322265625,336.4133605957031
2975,516.2239990234375,-971.4577026367188,399.952392578125,350.34820556640625
2976,518.587646484375,-974.4010009765624,398.7481384277344,349.2187805175781
2977,496.3052978515625,-986.7987670898438,372.74835205078125,332.1760559082031
2978,492.75238037109375,-997.188232421875,370.1678161621094,326.928955078125
2979,513.5050659179689,-976.8618774414062,392.4538879394531,340.2055969238281
2980,526.1571655273439,-974.0831298828124,403.6025085449219,346.5073547363281
2981,491.09185791015625,-996.7992553710938,379.9588623046875,332.1461181640625
2982,491.2040710449219,-1001.8555908203124,374.12835693359375,331.73846435546875
2983,515.7976684570311,-978.163330078125,395.6552429199219,348.7325744628906
2984,520.7268676757811,-976.24853515625,401.0743408203125,356.0440979003906
2985,490.17559814453125,-1001.0029296875,379.3904113769531,327.21319580078125
2986,494.9252624511719,-1001.3133544921876,380.3216552734375,333.2157287597656
2987,515.947265625,-983.328125,398.6471557617188,348.7998962402344
2988,519.7095947265625,-978.4027099609376,399.7541809082031,350.8717956542969
2989,497.5880737304688,-998.6542358398438,382.7525939941406,339.2743835449219
2990,498.9494018554688,-997.1807250976562,376.4844970703125,332.9090576171875
2991,512.4803466796875,-979.5845336914062,391.12994384765625,346.4138488769531
2992,515.513427734375,-971.2520141601562,401.99810791015625,345.4863586425781
2993,495.3778076171875,-996.1746826171876,375.5495300292969,325.99774169921875
2994,489.88763427734375,-1007.2186279296876,376.9183349609375,331.8244934082031
2995,520.0648803710939,-988.2984619140624,400.1618041992188,344.570068359375
2996,516.5905151367189,-982.1089477539062,399.4063415527344,350.4641418457031
2997,494.38671875,-1000.1988525390624,380.8227844238281,331.529052734375
2998,492.3783874511719,-1006.003173828125,376.85101318359375,335.0931701660156
2999,519.6572265625,-985.1644287109376,397.7981872558594,347.2515869140625
3000,523.6439819335939,-989.2521362304688,398.7892761230469,351.0475769042969
3001,494.5849304199219,-1005.4384155273438,381.0060424804688,343.45184326171875
3002,485.8784484863281,-1012.8023071289062,376.1366882324219,337.0304260253906
3003,511.6314086914063,-994.0093383789062,393.848876953125,348.5792541503906
3004,516.6541137695311,-984.5623168945312,399.271728515625,351.79180908203125
3005,497.4908447265625,-996.989990234375,374.5210571289063,330.6090393066406
3006,489.4126586914063,-999.2900390625,371.0093078613281,327.6806945800781
3007,509.5931701660156,-981.1066284179688,386.7056579589844,334.7004699707031
3008,519.081298828125,-975.556640625,396.4331359863281,342.09051513671875
3009,495.8677368164063,-1003.0150146484376,375.4186401367188,321.7192687988281
3010,490.3625793457031,-1004.8923950195312,374.9361877441406,324.7373962402344
3011,515.6480712890625,-985.9236450195312,391.6722412109375,340.5272521972656
3012,516.9158935546875,-980.7999877929688,400.89483642578125,345.766845703125
3013,495.3927612304688,-1003.4002075195312,374.2330932617188,333.81787109375
3014,487.871826171875,-998.515869140625,369.0757751464844,331.0540771484375
3015,510.8142395019531,-976.5346069335938,390.15570068359375,348.5268859863281
3016,516.0538330078125,-979.8631591796876,394.07513427734375,345.6658630371094
3017,496.17626953125,-1001.5396118164062,380.7984924316406,333.82159423828125
3018,493.90240478515625,-1001.8986206054688,370.31927490234375,327.6432800292969
3019,521.9778442382811,-976.7777099609376,396.0572814941406,344.98895263671875
3020,521.77587890625,-984.2650146484376,396.9361572265625,341.9521484375
3021,500.1966552734375,-1002.0444946289062,378.17681884765625,332.11993408203125
3022,500.82122802734375,-1013.7129516601562,380.7648315429688,325.7209777832031
3023,517.6358032226561,-991.9505004882812,397.5120849609375,343.1750793457031
3024,520.014404296875,-986.3743286132812,403.6044006347656,345.579833984375
3025,497.1374206542969,-1001.4835205078124,381.36322021484375,330.99798583984375
3026,485.6447143554688,-1003.0467529296876,373.72259521484375,324.7747802734375
3027,520.2986450195311,-983.0831909179688,401.0014343261719,343.0516662597656
3028,520.7960205078125,-985.2410888671876,400.2534484863281,345.7369079589844
3029,493.1843566894531,-1004.4268188476562,383.2929992675781,336.0917053222656
3030,498.7829895019531,-1008.89599609375,384.7665100097656,337.2884826660156
3031,517.2169189453125,-987.88525390625,399.8570251464844,355.3148193359375
3032,516.55126953125,-987.6945190429688,402.2131652832031,356.3956298828125
3033,493.4947509765625,-1008.5556640625,379.7774963378906,339.56610107421875
3034,487.22296142578125,-1011.3418579101562,371.7105407714844,335.6391906738281
3035,511.63702392578125,-985.0503540039062,398.0656127929688,355.591552734375
3036,521.2410888671875,-985.2785034179688,404.1691284179688,357.7345275878906
3037,497.960205078125,-1010.5901489257812,382.9451904296875,339.3865661621094
3038,491.834228515625,-1016.0205078125,381.2061462402344,332.21343994140625
3039,515.4629516601561,-991.935546875,400.6012573242188,345.7144775390625
3040,521.2298583984375,-984.0219116210938,402.59088134765625,352.6706848144531
3041,495.6003112792969,-1005.5300903320312,386.7374572753906,330.74365234375
3042,491.351806640625,-1003.615234375,381.718505859375,328.114501953125
3043,516.4614868164061,-982.93359375,398.996826171875,343.9642028808594
3044,515.6611328125,-982.4586181640624,403.57073974609375,352.9212646484375
3045,487.76898193359375,-1006.1359252929688,378.43487548828125,329.85357666015625
3046,488.7525634765625,-1005.9339599609376,378.6256103515625,328.7353210449219
3047,513.185302734375,-990.5816650390624,393.596435546875,344.9814758300781
3048,527.6624755859375,-982.873779296875,396.0123901367188,353.7440490722656
3049,497.51513671875,-1006.7305908203124,373.8235778808594,334.87249755859375
3050,502.2610778808594,-1011.2857666015624,377.3540344238281,335.2988586425781
3051,526.8621215820311,-987.2008056640624,402.4861755371094,353.3887634277344
3052,524.5658569335939,-994.1271362304688,406.4093322753906,357.468994140625
3053,498.9512634277344,-1016.0616455078124,382.6385192871094,342.7562255859375
3054,489.4033203125,-1014.872314453125,385.3013305664063,336.8135070800781
3055,511.6220397949219,-987.3953247070312,401.4165649414063,351.6085510253906
3056,511.3303527832031,-989.3363037109376,406.89923095703125,351.5674133300781
3057,486.3515625,-1000.1670532226562,383.6408081054688,343.11151123046875
3058,484.3843688964844,-1000.9187622070312,379.8634948730469,336.7162780761719
3059,510.9077453613281,-981.9612426757812,403.4996643066406,350.68853759765625
3060,516.0089721679689,-980.8130493164062,405.4556579589844,350.5987854003906
3061,495.2038879394531,-999.8154907226562,384.7291259765625,337.18377685546875
3062,488.5244445800781,-1007.3775634765624,381.29962158203125,332.1648254394531
3063,515.5003051757811,-988.977294921875,397.6616821289063,346.58587646484375
3064,518.6829833984375,-980.7831420898438,404.8123779296875,347.962158203125
3065,490.2784423828125,-1004.2734375,378.7004089355469,330.1340637207031
3066,493.7191467285156,-1002.194091796875,376.3592224121094,328.4361572265625
3067,517.796630859375,-986.3181762695312,391.3711853027344,342.8871154785156
3068,516.2632446289061,-984.7324829101562,392.04437255859375,345.2582092285156
3069,493.32647705078125,-1009.5803833007812,372.9259948730469,331.83197021484375
3070,493.2554016113281,-1010.9940795898438,375.4466857910156,329.91339111328125
3071,505.4549560546875,-988.7865600585938,397.93096923828125,343.5565490722656
3072,510.23828125,-984.3248291015624,404.9694519042969,353.549560546875
3073,486.6357727050781,-999.4041137695312,389.4152221679688,337.44183349609375
3074,484.9677734375,-995.2042236328124,391.31134033203125,337.6512451171875
3075,508.5964660644531,-978.9356689453124,407.6546936035156,354.7949523925781
3076,508.5441284179688,-979.6200561523438,414.2070007324219,363.9502258300781
3077,487.67919921875,-1001.0459594726562,392.70257568359375,344.5214538574219
3078,493.53216552734375,-1003.0692138671876,391.9359130859375,345.2170715332031
3079,519.1130981445311,-988.4536743164062,404.255126953125,356.1787109375
3080,519.3411865234375,-986.1873168945312,409.1431884765625,354.9931640625
3081,500.2004089355469,-1013.6680908203124,384.747802734375,337.0304260253906
3082,494.5755920410156,-1013.1370239257812,384.0297546386719,330.3621826171875
3083,519.9208984375,-992.4852905273438,396.2667236328125,345.931396484375
3084,524.2367553710939,-993.1434936523438,403.5221252441406,351.7843322753906
3085,498.2818298339844,-1007.3065185546876,380.68255615234375,334.3152770996094
3086,497.5974426269531,-1006.337890625,376.0450744628906,323.2376708984375
3087,521.3944091796875,-987.6010131835938,395.0699462890625,337.52783203125
3088,521.4617309570311,-982.9560546875,405.9979248046875,345.8304138183594
3089,500.3238220214844,-1005.0513916015624,388.6597595214844,332.0638427734375
3090,497.8704528808594,-1002.94580078125,385.9670104980469,334.7565612792969
3091,519.3748779296875,-985.6749267578124,408.0773010253906,354.49951171875
3092,516.5325317382811,-980.644775390625,408.9674072265625,356.8406982421875
3093,494.2427368164063,-1001.8051147460938,388.16607666015625,344.899169921875
3094,478.90167236328125,-999.4190673828124,379.44464111328125,335.6092834472656
3095,507.22393798828125,-979.7509155273438,403.9671630859375,354.51446533203125
3096,510.0812072753906,-978.7598876953124,407.2882080078125,353.62811279296875
3097,488.1579284667969,-998.5140380859376,389.6695251464844,338.993896484375
3098,492.2007446289063,-1006.221923828125,388.3194274902344,341.0096740722656
3099,507.7250671386719,-982.7353515625,402.5422668457031,355.6139831542969
3100,517.9761352539061,-975.8764038085938,409.9061279296875,356.6050720214844
3101,499.0073852539063,-997.9605102539062,381.6698913574219,335.5270080566406
3102,486.36651611328125,-1001.1805419921876,375.2821350097656,332.4939270019531
3103,512.2055053710939,-985.7534790039062,395.967529296875,342.5093994140625
3104,517.654541015625,-975.7791748046876,396.9847717285156,344.558837890625
3105,498.2519226074219,-998.9403686523438,375.1998596191406,331.3906555175781
3106,492.0623779296875,-1002.3660888671876,366.0707702636719,321.73797607421875
3107,511.13214111328125,-982.3875732421876,384.7926940917969,333.2606201171875
3108,511.5584716796875,-975.5098876953124,389.45635986328125,337.6512451171875
3109,489.8857421875,-998.2933349609376,366.2502746582031,322.1007385253906
3110,481.77764892578125,-1003.7723388671876,362.9778747558594,326.8878173828125
3111,518.58203125,-981.4002075195312,385.708984375,341.7165222167969
3112,512.2877807617189,-976.1905517578124,393.2972412109375,350.48284912109375
3113,484.556396484375,-1001.0982666015624,368.5241394042969,327.456298828125
3114,486.84521484375,-1009.4644165039062,369.5413818359375,325.59381103515625
3115,515.6162719726561,-989.833740234375,394.1611328125,348.4558410644531
3116,513.9968872070311,-983.416015625,402.22064208984375,351.5113220214844
3117,490.8132629394531,-1003.4432373046876,378.5433349609375,336.951904296875
3118,485.577392578125,-1006.85400390625,376.7481689453125,339.06494140625
3119,507.104248046875,-982.3651123046876,395.8029479980469,355.5018005371094
3120,508.8021545410156,-973.9915161132812,401.6147766113281,359.335205078125
3121,487.54083251953125,-995.596923828125,381.8755798339844,343.32843017578125
3122,487.4996948242188,-993.6484375,374.9717102050781,338.0514221191406
3123,508.476806640625,-975.4537963867188,398.5929260253906,358.2955017089844
3124,514.6364135742189,-979.1712646484376,403.3912048339844,360.8012390136719
3125,492.3316650390625,-1003.7947387695312,377.8626708984375,339.64837646484375
3126,498.1883239746094,-1001.7789306640624,383.09478759765625,341.1480712890625
3127,520.8745727539061,-982.7727661132812,404.0830993652344,354.3536376953125
3128,522.5051879882811,-983.554443359375,402.64697265625,354.2339782714844
3129,501.4196166992188,-999.7968139648438,382.6534729003906,342.8197937011719
3130,494.3586730957031,-1011.9328002929688,376.3068542480469,330.39959716796875
3131,512.5532836914061,-985.1663208007812,394.5052185058594,348.8597412109375
3132,521.3158569335939,-976.16064453125,402.2804565429688,347.7115783691406
3133,501.587890625,-1003.4095458984376,380.2337646484375,335.5868225097656
3134,488.1354675292969,-1009.5654296875,378.3226623535156,330.5791015625
3135,519.7077026367189,-996.4982299804688,395.5037841796875,346.88507080078125
3136,513.9258422851561,-989.9608764648438,397.8636474609375,345.2731628417969
3137,492.81036376953125,-1000.1932373046876,378.42364501953125,325.0216064453125
3138,488.2439270019531,-1008.2527465820312,370.4240112304688,322.34759521484375
3139,515.1113891601561,-980.8916015625,394.8118896484375,342.4158935546875
3140,518.2229614257811,-976.33642578125,399.501708984375,345.4078063964844
3141,487.9522399902344,-995.6118774414062,375.6897888183594,327.8078308105469
3142,483.6363830566406,-1000.3615112304688,369.2122802734375,321.65570068359375
3143,509.1761474609375,-974.5861206054688,395.7618103027344,342.7113342285156
3144,509.9054260253906,-980.304443359375,392.9194946289063,343.1376953125
3145,496.4156188964844,-1001.5545654296876,375.2335205078125,331.9329528808594
3146,492.5747375488281,-1000.9823608398438,379.5755310058594,331.60009765625
3147,523.9375610351561,-981.2169799804688,396.96234130859375,346.7317199707031
3148,519.6179809570311,-988.0572509765624,397.6130676269531,347.5171203613281
3149,500.60430908203125,-1008.4995727539062,378.1693420410156,331.23358154296875
3150,500.3500061035156,-1014.7900390625,378.7864074707031,330.7885437011719
3151,522.0077514648439,-989.3101196289062,392.30615234375,339.827880859375
3152,520.8820190429689,-978.9954833984376,396.6070556640625,348.14166259765625
3153,500.6267395019531,-1008.0283203125,380.7723083496094,331.9815673828125
3154,497.9302673339844,-1005.49267578125,371.09716796875,325.3096008300781
3155,519.487060546875,-987.6084594726562,387.657470703125,339.0238037109375
3156,517.4039306640625,-981.1945190429688,394.77447509765625,343.2012634277344
3157,493.0796203613281,-1009.6551513671876,374.1639099121094,326.9364318847656
3158,490.59259033203125,-1003.30859375,377.6607055664063,327.88262939453125
3159,503.383056640625,-987.9413452148438,395.8553161621094,342.17279052734375
3160,514.7897338867189,-985.0054931640624,402.9873046875,348.6502990722656
3161,489.5192565917969,-1003.0467529296876,377.08477783203125,336.2787170410156
3162,490.0802307128906,-1002.3436889648438,373.7413024902344,333.0661315917969
3163,513.794921875,-986.0414428710938,397.1081848144531,347.2216491699219
3164,517.6058959960939,-983.0645141601562,398.0880432128906,348.489501953125
3165,499.90869140625,-1006.7343139648438,383.5921936035156,342.10546875
3166,491.62481689453125,-1015.0406494140624,377.7878723144531,333.2793273925781
3167,514.7485961914061,-996.2476196289062,398.2264099121094,346.8888244628906
3168,523.8964233398439,-987.8665161132812,403.3800048828125,353.2129821777344
3169,501.4345703125,-1007.8973999023438,375.9104309082031,338.2122497558594
3170,494.33624267578125,-1014.5843505859376,369.148681640625,327.0710754394531
3171,511.8052978515625,-991.2847900390624,390.4623718261719,342.6141052246094
3172,517.994873046875,-990.1067504882812,395.09613037109375,346.9935302734375
3173,503.99639892578125,-1007.9609985351562,375.2559509277344,330.44073486328125
3174,495.03558349609375,-1012.2431640625,371.9274291992188,326.36798095703125
3175,522.2844848632811,-991.995361328125,393.4692687988281,342.8983459472656
3176,519.3411865234375,-986.9727172851562,396.1545104980469,343.19378662109375
3177,506.34130859375,-1004.3744506835938,377.6981201171875,334.5658264160156
3178,492.6083984375,-1008.7576293945312,373.8123474121094,332.3144226074219
3179,520.9306640625,-990.2152099609376,389.3553771972656,342.4233703613281
3180,524.0684204101561,-985.5216064453124,393.4393310546875,347.38623046875
3181,500.31634521484375,-1004.7708740234376,373.5430908203125,331.69732666015625
3182,495.3385314941406,-1007.3251953125,373.6515197753906,324.40826416015625
3183,524.8313598632811,-985.9217529296876,395.5823059082031,343.12646484375
3184,530.4749145507811,-984.3285522460938,399.1389465332031,345.9687805175781
3185,503.4129638671875,-1003.2225341796876,381.40435791015625,332.8080749511719
3186,501.9469299316406,-1006.5435791015624,382.20843505859375,325.3020935058594
3187,525.00341796875,-981.6844482421876,401.9027404785156,345.7070007324219
3188,521.6561889648439,-983.0906982421876,400.1636962890625,346.76165771484375
3189,501.7711486816406,-1008.1666870117188,373.913330078125,332.0414123535156
3190,513.3760375976561,-1012.5498657226562,375.41302490234375,333.14093017578125
3191,526.4395141601561,-995.3911743164062,388.1099853515625,347.81256103515625
3192,535.3367309570311,-990.282470703125,401.1398010253906,354.0320129394531
3193,520.7847900390625,-1012.4825439453124,375.3868408203125,336.88458251953125
3194,504.8902282714844,-1013.2567138671876,375.790771484375,334.6032409667969
3195,527.314697265625,-1002.018310546875,390.9074401855469,345.1796875
3196,523.5,-995.4697265625,394.56878662109375,351.9638671875
3197,504.5985107421875,-1012.4825439453124,374.3396911621094,334.9024353027344
3198,497.103759765625,-1010.38818359375,374.21624755859375,331.6599426269531
3199,523.1409301757811,-990.6489868164062,395.3092956542969,347.6554870605469
3200,524.9473266601561,-986.3107299804688,402.9910583496094,346.6307678222656
3201,503.2110290527344,-1001.0459594726562,387.8893432617188,336.35723876953125
3202,496.269775390625,-1004.905517578125,385.2788696289063,333.8365478515625
3203,515.7097778320311,-986.80810546875,406.6299743652344,346.6457214355469
3204,520.837158203125,-980.0987548828124,405.3546752929688,347.4797058105469
3205,503.4391479492188,-1002.9644775390624,381.9316711425781,334.8800048828125
3206,490.6412048339844,-1012.4451293945312,376.4975891113281,330.4070739746094
3207,521.3495483398439,-989.6953125,397.57568359375,350.83441162109375
3208,518.3763427734375,-989.4672241210938,400.4853210449219,351.1859436035156
3209,501.09796142578125,-1007.3065185546876,380.77978515625,339.6034851074219
3210,498.8914489746094,-1012.8116455078124,378.9322814941406,332.187255859375
3211,525.8449096679689,-989.3587646484376,402.6282653808594,347.48345947265625
3212,522.7669677734375,-986.6809692382812,404.419677734375,347.1580810546875
3213,499.5459289550781,-1008.181640625,382.717041015625,330.661376953125
3214,502.6724853515625,-1006.749267578125,380.4918212890625,331.7684020996094
3215,525.0595092773439,-989.975830078125,399.7822265625,346.16326904296875
3216,523.3428955078125,-983.2533569335938,407.6360168457031,354.95391845703125
3217,508.5815124511719,-1005.1504516601562,389.8826904296875,332.9857177734375
3218,496.8083190917969,-1003.6395263671876,387.3507995605469,337.3913269042969
3219,519.344970703125,-983.092529296875,408.9449768066406,349.833984375
3220,522.2283935546875,-975.6912841796876,411.5816040039063,356.60693359375
3221,496.8269958496094,-1001.6387329101562,383.47998046875,337.2380065917969
3222,494.9458312988281,-1007.0615844726562,377.0511169433594,327.7162170410156
3223,515.01416015625,-990.3404541015624,394.7183837890625,340.1962585449219
3224,525.7027587890625,-982.9354858398438,397.2727355957031,352.19384765625
3225,497.9527282714844,-1000.9542846679688,378.7976379394531,332.54443359375
3226,498.5959777832031,-1001.1712036132812,370.14349365234375,330.8951416015625
3227,515.1712036132811,-988.6874389648438,395.0811462402344,345.8098449707031
3228,522.7445068359375,-983.3468627929688,399.1239929199219,347.5638732910156
3229,504.9837341308594,-1003.9200439453124,375.36065673828125,329.46649169921875
3230,500.2340698242188,-1013.19873046875,370.88775634765625,328.4080810546875
3231,515.3507080078125,-988.9267578125,393.4655151367188,344.5682067871094
3232,518.8139038085939,-987.5617065429688,400.31329345703125,353.2672119140625
3233,501.9432067871094,-1001.1300659179688,378.31146240234375,331.9422912597656
3234,494.0557556152344,-1004.443603515625,375.8356323242188,327.6676025390625
3235,524.262939453125,-985.5272216796876,400.522705078125,349.7890930175781
3236,523.3092651367189,-987.2401123046876,409.0908203125,359.6100769042969
3237,497.103759765625,-1003.8041381835938,386.9580993652344,343.2181091308594
3238,491.5762023925781,-1003.4600219726562,378.9996032714844,336.66204833984375
3239,518.4024658203125,-982.9578857421876,403.4548034667969,350.66796875
3240,514.931884765625,-980.1903686523438,402.86016845703125,348.2632141113281
3241,497.3169250488281,-1002.7382202148438,382.2832336425781,333.4943542480469
3242,493.9697265625,-1004.52587890625,379.0744018554688,331.0596923828125
3243,518.7578125,-988.6948852539062,403.4136657714844,357.1192932128906
3244,528.0963134765625,-992.9658813476562,407.0114440917969,358.25250244140625
3245,507.6727294921875,-1009.0885620117188,385.81744384765625,337.1183166503906
3246,496.5502624511719,-1015.5249633789062,383.1546325683594,330.8764343261719
3247,524.6331787109375,-991.671875,399.1501770019531,351.6590576171875
3248,520.7511596679689,-992.2216186523438,397.7589416503906,352.8408508300781
3249,495.7835693359375,-1011.9384155273438,376.2769470214844,334.16754150390625
3250,502.00677490234375,-1012.6863403320312,376.4975891113281,328.224853515625
3251,516.083740234375,-990.9912109375,394.5613098144531,344.7327575683594
3252,520.4407348632811,-990.052490234375,395.41400146484375,351.3486328125
3253,496.5951232910156,-1008.6173706054688,378.35260009765625,335.99261474609375
3254,493.85003662109375,-1010.12451171875,373.5954284667969,333.03436279296875
3255,523.8253173828125,-987.1578369140624,402.2655029296875,350.5894470214844
3256,519.8797607421875,-981.9481201171876,404.7076721191406,350.05462646484375
3257,493.8014221191406,-1000.2437133789062,385.6678466796875,337.7391357421875
3258,494.6167297363281,-1004.114501953125,378.9360046386719,334.27972412109375
3259,514.8084716796875,-987.0643310546876,396.977294921875,347.36566162109375
3260,510.08868408203125,-987.8272705078124,399.8981628417969,348.0089111328125
3261,493.87249755859375,-1006.5866088867188,382.99005126953125,335.2371520996094
3262,491.7407531738281,-1007.6337890625,377.3577880859375,334.317138671875
3263,515.5825805664061,-994.1177368164062,402.99853515625,352.4182434082031
3264,520.5641479492189,-980.7850341796876,403.6455383300781,361.9063720703125
3265,498.1920776367188,-996.2869262695312,382.0139465332031,329.4328308105469
3266,493.2628784179688,-1004.477294921875,371.5946044921875,332.4995422363281
3267,519.9171752929689,-986.9708251953124,394.759521484375,351.79742431640625
3268,522.022705078125,-981.49560546875,393.5403137207031,353.8057556152344
3269,495.7985229492188,-1003.7106323242188,374.51171875,335.6971740722656
3270,497.9901123046875,-999.1815795898438,365.6518859863281,333.4419860839844
3271,505.671875,-981.4694213867188,390.697998046875,347.0888977050781
3272,519.3561401367189,-982.2996826171876,395.5149841308594,352.2499694824219
3273,494.5494079589844,-1002.5101318359376,374.02178955078125,336.63214111328125
3274,493.3526306152344,-1004.7689819335938,371.6319885253906,325.315185546875
3275,517.5684814453125,-986.7501831054688,394.5575866699219,349.7068176269531
3276,519.4459228515625,-984.5735473632812,404.2065124511719,354.5387878417969
3277,493.0347595214844,-1008.7482299804688,381.10888671875,342.35418701171875
3278,491.0563354492188,-1010.6555786132812,373.8161010742188,336.5648193359375
3279,517.949951171875,-985.673095703125,399.512939453125,355.8963623046875
3280,521.6860961914061,-977.5126342773438,405.54913330078125,357.04449462890625
3281,493.98468017578125,-999.865966796875,383.17706298828125,336.8864440917969
3282,491.4041442871094,-1007.046630859375,382.634765625,338.22906494140625
3283,511.1807556152344,-990.12353515625,398.0917663574219,354.8529357910156
3284,517.0261840820311,-986.4248046875,403.68292236328125,360.02520751953125
3285,493.2591552734375,-1005.0158081054688,380.8022155761719,344.0408630371094
3286,489.134033203125,-1010.4910278320312,372.5894165039063,335.8953857421875
3287,514.0567016601561,-986.40234375,391.1617431640625,352.2349853515625
3288,516.8990478515625,-984.266845703125,397.07080078125,354.46771240234375
3289,495.9930114746094,-1010.2479858398438,379.77374267578125,334.85943603515625
3290,493.2329711914063,-1016.2691650390624,371.0560302734375,328.8905334472656
3291,518.817626953125,-997.319091796875,391.34124755859375,344.5008850097656
3292,517.7929077148439,-990.1834106445312,394.594970703125,349.6394958496094
3293,497.7881774902344,-1008.9165649414062,371.9947509765625,333.3185729980469
3294,492.1895446777344,-1012.3610229492188,366.5531921386719,330.068603515625
3295,513.5518188476561,-987.8197631835938,388.2109680175781,342.7319030761719
3296,513.3499145507811,-983.1748046875,387.6986083984375,347.4142761230469
3297,499.7778015136719,-997.1583251953124,371.4674377441406,335.3568420410156
3298,490.6935729980469,-999.2863159179688,364.0025939941406,321.5341491699219
3299,515.990234375,-986.0657348632812,389.6358642578125,344.22412109375
3300,525.6728515625,-982.9691162109376,400.5152282714844,355.0062561035156
3301,499.9685363769531,-1004.454833984375,385.3125305175781,345.5218811035156
3302,501.1166687011719,-1014.7882080078124,378.0608825683594,340.66375732421875
3303,522.98388671875,-989.4129638671876,391.6030578613281,347.9864807128906
3304,522.4116821289061,-994.7273559570312,403.3239135742188,354.7220458984375
3305,491.9913330078125,-1005.73388671875,381.0827026367188,344.84869384765625
3306,493.8537902832031,-1010.4873046875,373.67022705078125,336.52740478515625
3307,511.10595703125,-987.154052734375,391.9994812011719,348.47265625
3308,521.4729614257811,-983.4590454101562,399.5578308105469,355.8215637207031
3309,498.2930603027344,-1007.2634887695312,377.7467346191406,342.3728942871094
3310,495.7760925292969,-1012.046875,368.2698059082031,331.5346374511719
3311,517.6657104492189,-983.6273193359376,387.6686706542969,343.6556701660156
3312,528.5451049804689,-985.5870361328124,391.0719909667969,349.9910583496094
3313,505.19317626953125,-1002.1398315429688,376.54620361328125,337.33148193359375
3314,498.61468505859375,-1010.3676147460938,373.8796691894531,330.84649658203125
3315,529.3416748046875,-988.384521484375,396.62200927734375,349.6769104003906
3316,527.056640625,-997.2667846679688,397.0446166992188,349.7180480957031
3317,503.9889221191406,-1006.3846435546876,375.0689697265625,339.7437438964844
3318,491.53131103515625,-1012.86962890625,366.4035949707031,332.4845886230469
3319,519.9133911132811,-986.8623657226562,388.39794921875,347.7845153808594
3320,516.8280029296875,-986.4322509765624,393.7721862792969,355.5522766113281
3321,500.3724365234375,-1003.4039306640624,372.9970397949219,333.70379638671875
3322,494.31378173828125,-1009.866455078125,372.7801513671875,334.0254211425781
3323,514.5354614257811,-990.0487670898438,388.7196044921875,352.122802734375
3324,524.0086059570311,-983.1897583007812,399.9654846191406,357.77752685546875
3325,494.4933166503906,-1000.9019165039062,379.18658447265625,340.9666748046875
3326,491.9165344238281,-1003.478759765625,378.0122680664063,334.2273864746094
3327,516.0202026367189,-984.03125,396.5172729492188,355.7243347167969
3328,521.9142456054689,-984.1583862304688,402.9648742675781,357.3063049316406
3329,501.19146728515625,-1009.1708374023438,379.3698425292969,340.5328369140625
3330,501.8609008789063,-1020.0614624023438,380.2001037597656,336.0412292480469
3331,520.5379638671875,-997.1246337890624,395.3990478515625,352.627685546875
3332,526.963134765625,-992.8312377929688,395.88525390625,353.7122497558594
3333,505.9785461425781,-1009.054931640625,376.7145080566406,334.810791015625
3334,505.4886169433594,-1011.2651977539062,372.3687438964844,329.79559326171875
3335,526.67138671875,-991.978515625,392.2650146484375,343.6444396972656
3336,533.6276245117189,-990.4900512695312,394.2770690917969,351.68524169921875
3337,506.4572448730469,-1011.9720458984376,374.4256896972656,329.32061767578125
3338,496.00048828125,-1011.4447021484376,373.1054992675781,323.5761413574219
3339,520.4033203125,-988.6500244140624,393.7460021972656,348.0986633300781
3340,521.0578002929689,-978.9749145507812,395.6832885742188,349.4076232910156
3341,499.5234680175781,-1004.499755859375,376.2096252441406,332.5369567871094
3342,489.2013549804688,-999.6602783203124,372.1742858886719,333.45697021484375
3343,514.4531860351561,-980.2913818359376,396.1806945800781,352.42572021484375
3344,516.2221069335939,-981.072998046875,398.97064208984375,353.8992614746094
3345,496.17999267578125,-1002.5474853515624,374.3434143066406,335.66351318359375
3346,489.61273193359375,-1007.024169921875,369.3020324707031,335.3755187988281
3347,517.3291625976561,-986.72021484375,393.66748046875,346.5466003417969
3348,519.2850952148439,-985.3888549804688,394.9876708984375,353.28216552734375
3349,500.08447265625,-1004.3501586914062,378.80511474609375,338.7002868652344
3350,488.90216064453125,-1015.1397705078124,370.83538818359375,330.4014587402344
3351,514.6439208984375,-987.2849731445312,393.7834167480469,352.7548522949219
3352,509.135009765625,-983.2944946289062,393.738525390625,354.5574645996094
3353,490.5327453613281,-1007.5814208984376,376.5050659179688,337.39508056640625
3354,498.6820068359375,-1009.5673217773438,373.4645385742188,333.7935485839844
3355,507.93450927734375,-983.7320556640624,393.73480224609375,349.41510009765625
3356,514.404541015625,-986.297607421875,393.057861328125,355.07733154296875
3357,486.6806640625,-1003.0635986328124,374.3060302734375,336.8041687011719
3358,492.63458251953125,-1005.767578125,374.9530334472656,338.22906494140625
3359,513.2638549804689,-991.107177734375,392.4595031738281,348.71575927734375
3360,517.1832885742189,-982.9653930664062,404.2962646484375,360.081298828125
3361,505.238037109375,-1002.083740234375,379.7774963378906,339.048095703125
3362,496.4978942871094,-1006.0891723632812,371.8489074707031,336.6807556152344
3363,519.3038330078125,-992.0645751953124,402.071044921875,356.2666015625
3364,520.9718017578125,-987.1503295898438,392.83349609375,352.968017578125
3365,496.41937255859375,-1007.42431640625,376.0862121582031,341.8979187011719
3366,489.5267333984375,-1013.2361450195312,368.0192565917969,337.3352355957031
3367,520.650146484375,-995.5127563476562,389.007568359375,352.51922607421875
3368,523.0137939453125,-986.9633178710938,398.5443115234375,354.6285400390625
3369,499.3439636230469,-1007.2223510742188,377.6943664550781,333.3559875488281
3370,492.56353759765625,-1007.353271484375,372.49591064453125,334.6350402832031
3371,516.6559448242189,-984.8240966796876,390.9859619140625,350.0995178222656
3372,522.9090576171875,-986.5108032226562,396.7790832519531,346.5204162597656
3373,491.0750427246094,-1013.71484375,369.5787963867188,333.0044250488281
3374,493.18060302734375,-1016.4935913085938,365.6518859863281,329.3131408691406
3375,514.1090698242189,-988.9230346679688,386.9281921386719,346.78594970703125
3376,522.374267578125,-980.9832153320312,398.00201416015625,351.5767822265625
3377,486.5946350097656,-1001.7059936523438,372.0134582519531,333.9319152832031
3378,487.8101196289063,-1001.4928588867188,368.8681945800781,332.9034423828125
3379,508.8283386230469,-982.1575927734376,391.6853332519531,348.73443603515625
3380,513.0394897460939,-976.4654541015624,389.5348815917969,350.1556091308594
3381,494.4222412109375,-995.8343505859376,369.5339050292969,338.09442138671875
3382,483.7410888671875,-1007.1588134765624,361.3734436035156,330.0162658691406
3383,516.4951171875,-992.53955078125,384.02227783203125,346.5727844238281
3384,517.1608276367189,-984.1583862304688,390.8288879394531,352.8221740722656
3385,496.6175842285156,-997.7678833007812,367.77239990234375,336.4077453613281
3386,489.5491638183594,-1003.2991943359376,367.4096374511719,328.9017639160156
3387,519.25146484375,-982.9878540039062,386.1577453613281,346.7784729003906
3388,523.6458129882811,-983.1224365234376,393.6973876953125,351.76751708984375
3389,488.80865478515625,-1003.4487915039062,371.377685546875,328.9429016113281
3390,484.0739440917969,-1008.0750732421876,359.7578125,326.2838439941406
3391,515.9566040039061,-983.9938354492188,388.3904724121094,348.3454895019531
3392,513.4321899414061,-986.0695190429688,392.30615234375,351.2551574707031
3393,493.8350830078125,-1006.014404296875,372.4996337890625,335.1922607421875
3394,490.2223510742188,-1003.3328857421876,368.79339599609375,331.1195373535156
3395,512.7589721679689,-984.300537109375,394.3257141113281,350.5108947753906
3396,519.0345458984375,-986.4509887695312,399.5466003417969,352.01434326171875
3397,497.948974609375,-1010.3900756835938,373.2364196777344,336.11602783203125
3398,492.4887390136719,-1013.9542236328124,368.3782653808594,326.0407409667969
3399,521.259765625,-989.9552612304688,400.3992919921875,349.01495361328125
3400,520.5641479492189,-982.8756103515624,403.40618896484375,354.99505615234375
3401,492.0137634277344,-1008.879150390625,375.07269287109375,337.1332702636719
3402,499.80023193359375,-1015.5511474609376,373.8796691894531,334.1488342285156
3403,517.7891235351561,-986.1929321289062,395.5673522949219,348.1547546386719
3404,515.0665283203125,-987.8646240234376,395.604736328125,354.84918212890625
3405,491.3854675292969,-1009.4027099609376,382.2981872558594,343.0198974609375
3406,487.5333557128906,-1005.3786010742188,374.3658447265625,336.5049743652344
3407,508.1776123046875,-987.5467529296876,395.9712524414063,353.3457336425781
3408,509.74835205078125,-983.6161499023438,397.9272155761719,356.2890625
3409,491.0077209472656,-1000.1090698242188,378.4273986816406,340.0504150390625
3410,484.7994995117188,-1003.73681640625,377.3577880859375,334.7098388671875
3411,512.889892578125,-986.2564697265624,397.6990966796875,353.28216552734375
3412,518.9635009765625,-978.806640625,401.1398010253906,359.2136535644531
3413,499.919921875,-994.8619995117188,383.3079528808594,339.6950988769531
3414,488.72637939453125,-1001.5938110351562,377.4400634765625,333.1540222167969
3415,515.5302734375,-977.7930908203124,393.0728454589844,349.4412841796875
3416,517.56103515625,-982.8419799804688,399.0230102539063,354.4602355957031
3417,493.7752380371094,-1001.0776977539062,378.2048645019531,333.0979309082031
3418,483.1539306640625,-1007.7197875976562,369.10943603515625,327.5367126464844
3419,516.1136474609375,-979.360107421875,395.5991516113281,347.2833557128906
3420,516.9700927734375,-981.5105590820312,402.4020080566406,352.5940246582031
3421,494.4147644042969,-1004.4473876953124,381.3576049804688,336.71441650390625
3422,492.66448974609375,-1003.7106323242188,378.3955993652344,338.6890869140625
3423,512.8936157226561,-987.0156860351562,396.3097229003906,352.0068664550781
3424,515.9827880859375,-982.2211303710938,402.91436767578125,358.402099609375
3425,494.1978454589844,-999.5855102539062,385.51263427734375,338.7937927246094
3426,489.41827392578125,-1005.3561401367188,378.5489196777344,334.27972412109375
3427,515.4853515625,-982.598876953125,401.6502990722656,357.1043395996094
3428,528.2571411132811,-988.0853271484376,403.0116271972656,357.43719482421875
3429,497.6235961914063,-1003.0823364257812,376.0357360839844,336.534912109375
3430,497.8479919433594,-1006.837158203125,377.3858337402344,334.9379577636719
3431,523.6495971679689,-985.5421752929688,389.3310546875,344.164306640625
3432,527.5316162109375,-988.5191650390624,405.8763732910156,351.28131103515625
3433,507.444580078125,-1011.8523559570312,378.8294372558594,337.7578430175781
3434,498.4837951660156,-1012.0692749023438,374.2929382324219,336.5311584472656
3435,518.653076171875,-990.29931640625,394.3612365722656,348.8877868652344
3436,524.14697265625,-988.25732421875,400.8985900878906,352.27239990234375
3437,495.2936401367188,-1005.9208984375,376.7088928222656,338.0869445800781
3438,488.8423156738281,-1008.4864501953124,369.9583740234375,334.5452575683594
3439,512.6991577148439,-985.22802734375,391.982666015625,348.8316955566406
3440,524.0460205078125,-982.5166015625,393.1345520019531,351.0606689453125
3441,496.17626953125,-1001.0328369140624,377.52044677734375,336.1384582519531
3442,497.22344970703125,-1011.2539672851562,372.90167236328125,334.0291748046875
3443,517.5236206054689,-989.9253540039062,395.7711791992188,344.7065734863281
3444,513.3386840820311,-981.2450561523438,394.3874206542969,346.0118103027344
3445,490.07647705078125,-1006.3509521484376,373.94512939453125,331.0297546386719
3446,493.13946533203125,-1004.2117309570312,370.4557800292969,329.8442077636719
3447,512.2615966796875,-983.8255615234376,389.1702575683594,340.925537109375
3448,516.1921997070311,-980.8598022460938,399.72052001953125,355.5635070800781
3449,494.9421081542969,-1006.8521118164062,376.4994812011719,336.523681640625
3450,493.5920104980469,-1010.8201904296876,370.93450927734375,324.26055908203125
3451,514.3634033203125,-978.0661010742188,383.9156799316406,345.349853515625
3452,515.8743286132811,-975.4780883789062,395.8497009277344,352.05548095703125
3453,488.89093017578125,-997.4837036132812,370.8297729492188,335.42041015625
3454,482.78369140625,-998.9572143554688,361.1546630859375,327.25994873046875
3455,512.9796142578125,-977.0039672851562,389.3273315429688,350.70538330078125
3456,511.8651428222656,-980.0258178710938,393.7890319824219,347.46661376953125
3457,492.5448303222656,-1006.167724609375,371.77972412109375,335.7944030761719
3458,486.9910583496094,-1002.6409912109376,364.87213134765625,332.1330261230469
3459,512.9684448242189,-979.0123291015624,391.5563049316406,350.60064697265625
3460,520.9680786132811,-976.8618774414062,395.30743408203125,356.4049987792969
3461,497.10003662109375,-1002.6559448242188,371.21124267578125,333.5878601074219
3462,491.3031921386719,-1002.7344970703124,368.1968994140625,323.7967834472656
3463,516.7719116210939,-985.5758056640624,388.5606384277344,338.8760681152344
3464,521.1251220703125,-986.8623657226562,394.0582885742188,350.2864990234375
3465,489.5491638183594,-1007.60009765625,372.4715881347656,329.9938049316406
3466,489.3958435058594,-1014.489013671875,371.6974487304688,324.9935607910156
3467,514.7635498046875,-992.9060668945312,390.2997131347656,338.2477722167969
3468,522.1723022460939,-984.2556762695312,399.0435791015625,349.01495361328125
3469,492.713134765625,-1004.2640991210938,370.938232421875,327.3983154296875
3470,483.5653381347656,-1003.5535278320312,363.6940612792969,324.9075622558594
3471,512.6392822265625,-981.0916748046876,392.5398864746094,343.73419189453125
3472,513.7537841796875,-977.9838256835938,393.10089111328125,345.503173828125
3473,496.269775390625,-995.1911010742188,371.959228515625,334.41436767578125
3474,492.11846923828125,-997.0311279296876,373.5262451171875,331.26910400390625
3475,519.9994506835939,-979.7939453125,394.9633483886719,352.9904479980469
3476,525.7850341796875,-979.11328125,394.9296875,351.0419616699219
3477,493.722900390625,-1006.42578125,372.7445983886719,336.4189758300781
3478,488.47955322265625,-1011.1604614257812,367.1422424316406,328.5240173339844
3479,527.0005493164061,-995.4902954101562,397.19232177734375,354.4751892089844
3480,521.495361328125,-984.5735473632812,399.9374084472656,350.2378845214844
3481,493.2030334472656,-1002.50634765625,374.47991943359375,332.802490234375
3482,491.93896484375,-1010.3115234375,373.3579406738281,325.7303161621094
3483,509.8680419921875,-984.816650390625,391.6871948242188,347.533935546875
3484,515.5601806640625,-978.7056274414062,395.0531005859375,352.8333740234375
3485,489.9605407714844,-1005.8012084960938,376.69769287109375,333.2176208496094
3486,491.99505615234375,-1008.7781982421876,375.2091979980469,331.8001708984375
3487,515.391845703125,-980.5007934570312,396.115234375,351.5730285644531
3488,522.30322265625,-974.20654296875,402.09161376953125,354.53131103515625
3489,496.58392333984375,-997.8875732421876,373.4103088378906,330.5772399902344
3490,495.7237243652344,-996.7992553710938,367.6097412109375,332.42474365234375
3491,521.7945556640625,-975.2349853515624,389.177734375,346.3932800292969
3492,525.5007934570311,-973.585693359375,394.7314758300781,349.6245422363281
3493,498.23321533203125,-1000.1165771484376,369.7190246582031,330.6370849609375
3494,495.31982421875,-1006.4444580078124,363.9595947265625,325.2142333984375
3495,520.5342407226561,-980.96826171875,389.6900939941406,345.6078796386719
3496,522.9651489257811,-985.837646484375,395.1690368652344,354.3106384277344
3497,498.1883239746094,-999.5219116210938,373.6534118652344,332.6379089355469
3498,487.4623107910156,-1004.6792602539062,363.989501953125,326.2763671875
3499,520.2313232421875,-984.865234375,395.14288330078125,344.8113098144531
3500,522.5874633789061,-979.2927856445312,389.3759460449219,349.1982116699219
3501,496.3146362304688,-1004.7727661132812,369.3824462890625,334.3507995605469
3502,488.26263427734375,-1002.3455200195312,369.8985595703125,329.7170715332031
3503,513.9744262695311,-976.3158569335938,392.7081909179688,346.6775207519531
3504,517.5011596679689,-973.2080078125,395.2999572753906,358.06549072265625
3505,499.8825073242188,-994.9368286132812,373.32427978515625,337.2342529296875
3506,488.61419677734375,-1006.650146484375,371.45806884765625,332.3237609863281
3507,521.188720703125,-984.7156372070312,398.0824279785156,354.1984558105469
3508,519.6890258789061,-976.9591064453124,397.85430908203125,353.15875244140625
3509,501.6477355957031,-1002.88037109375,372.0227966308594,325.02349853515625
3510,494.4222412109375,-1002.6746826171876,367.36663818359375,325.68170166015625
3511,514.4569091796875,-980.5867919921876,392.0350036621094,343.8164978027344
3512,524.5172119140625,-973.5670166015624,392.2145385742188,346.3558654785156
3513,501.9880676269531,-998.0633544921876,368.0211181640625,324.5111083984375
3514,491.1124572753906,-1003.8414916992188,366.1324768066406,321.78472900390625
3515,515.907958984375,-984.3529052734376,386.6495666503906,337.99346923828125
3516,524.3975219726561,-974.38232421875,394.02838134765625,349.79656982421875
3517,493.2030334472656,-996.5337524414062,368.2791748046875,331.5533447265625
3518,486.51611328125,-1002.9327392578124,367.0823974609375,330.73431396484375
3519,516.5699462890625,-984.3341674804688,387.37884521484375,350.1257019042969
3520,516.0875244140625,-968.6640014648438,389.8172607421875,355.61212158203125
3521,492.89263916015625,-999.7425537109376,364.27374267578125,330.9063415527344
3522,485.75689697265625,-998.9758911132812,359.10894775390625,327.9219055175781
3523,515.1188354492189,-977.153564453125,382.546875,343.8351745605469
3524,518.1556396484375,-973.6567993164062,383.81097412109375,346.98419189453125
3525,486.6320495605469,-999.6715087890624,364.1166687011719,333.92071533203125
3526,484.2497253417969,-1004.7615356445312,355.0511474609375,320.5131530761719
3527,513.7987060546875,-986.4322509765624,382.1018371582031,337.4025573730469
3528,517.73681640625,-978.9188232421876,390.5091247558594,344.998291015625
3529,493.82012939453125,-999.3760375976562,373.93389892578125,327.5666198730469
3530,488.72265625,-1003.18701171875,366.207275390625,321.1751403808594
3531,508.3309326171875,-979.2815551757812,388.4521789550781,339.2575378417969
3532,526.6152954101561,-970.47412109375,398.1983642578125,350.61187744140625
3533,499.1831359863281,-1006.91943359375,376.4321594238281,333.9244384765625
3534,496.5465087890625,-1009.1259765625,374.9736022949219,333.5616760253906
3535,518.3351440429689,-986.353759765625,396.4331359863281,350.0509033203125
3536,514.0193481445311,-985.8937377929688,392.5997314453125,349.67315673828125
3537,492.7355651855469,-1010.5321655273438,366.6373596191406,326.3698425292969
3538,479.5037841796875,-1016.310302734375,361.1210021972656,324.3353576660156
3539,513.1441650390625,-986.4771728515624,385.1012268066406,338.48712158203125
3540,522.4191284179689,-980.4110107421876,395.2251586914063,349.72552490234375
3541,505.7990417480469,-1006.0368041992188,378.2048645019531,338.1019287109375
3542,494.4708862304688,-1009.31298828125,370.4034423828125,332.26019287109375
3543,520.8035278320311,-983.5824584960938,394.189208984375,349.8564147949219
3544,524.0460205078125,-979.2479248046876,399.260498046875,349.2879638671875
3545,492.4400939941406,-999.922119140625,373.2607116699219,331.9871826171875
3546,491.0488586425781,-1006.7474365234376,368.8887634277344,326.3137512207031
3547,518.9635009765625,-984.4987182617188,389.1029357910156,346.853271484375
3548,521.330810546875,-986.3237915039062,394.6192932128906,358.9555969238281
3549,492.4214172363281,-1010.6369018554688,369.67041015625,334.5340576171875
3550,492.3540954589844,-1010.053466796875,361.0125427246094,330.3304138183594
3551,516.4502563476561,-985.9011840820312,386.3129577636719,344.1867370605469
3552,522.527587890625,-980.0183715820312,390.6288146972656,351.50946044921875
3553,497.08880615234375,-998.022216796875,368.4886169433594,339.2052001953125
3554,485.9812927246094,-1000.1016235351562,366.45782470703125,333.85711669921875
3555,510.6534118652344,-974.8086547851562,389.9930419921875,348.2893981933594
3556,517.6021728515625,-973.5445556640624,398.52374267578125,357.381103515625
3557,487.6605224609375,-995.3856201171876,373.7057495117188,336.9163818359375
3558,485.2819519042969,-999.8173828125,367.53118896484375,336.2244873046875
3559,511.8277587890625,-979.1506958007812,392.10980224609375,347.6162109375
3560,516.7232666015625,-976.3944091796876,391.4740295410156,355.3017272949219
3561,488.91339111328125,-999.6902465820312,372.8493347167969,341.9427795410156
3562,487.4959716796875,-1009.1746215820312,369.89105224609375,332.8436279296875
3563,513.3984985351561,-981.0056762695312,390.4044189453125,350.5445556640625
3564,528.5039672851561,-974.4010009765624,397.1212768554688,355.92254638671875
3565,493.98468017578125,-995.4229736328124,374.2218627929688,335.667236328125
3566,486.1533203125,-1001.33203125,364.16900634765625,332.18914794921875
3567,517.7891235351561,-976.1400756835938,390.105224609375,348.8728332519531
3568,516.4277954101561,-965.780517578125,394.5669250488281,356.68548583984375
3569,499.0709533691406,-989.1436767578124,375.702880859375,337.4586486816406
3570,498.0723876953125,-995.1948852539062,376.8360595703125,333.9955139160156
3571,517.2655639648439,-978.5074462890624,398.8117065429688,354.05633544921875
3572,525.5382080078125,-975.8782958984376,401.1491394042969,358.45819091796875
3573,498.1210021972656,-996.9675903320312,376.7537841796875,343.5097961425781
3574,486.7218017578125,-1003.1495971679688,369.3487854003906,333.6663818359375
3575,511.2443237304688,-983.3992309570312,386.8028869628906,346.60272216796875
3576,524.9398193359375,-978.2119750976562,394.3836669921875,354.1161804199219
3577,492.38775634765625,-1010.6481323242188,367.0450134277344,327.9443359375
3578,488.55059814453125,-1008.9501953125,360.5375671386719,322.24847412109375
3579,523.077392578125,-980.9757690429688,385.0451354980469,341.9502868652344
3580,522.209716796875,-969.4456176757812,399.4848937988281,353.7795715332031
3581,494.9009704589844,-989.7757568359376,379.9626159667969,336.74432373046875
3582,497.37677001953125,-1000.3147583007812,372.299560546875,335.42413330078125
3583,522.8043823242189,-971.3193359375,395.0905151367188,352.7137145996094
3584,521.8095703125,-972.059814453125,400.3712463378906,356.58074951171875
3585,493.4610900878906,-995.89794921875,376.2750854492188,338.7077941894531
3586,488.88720703125,-1000.8121948242188,367.2544250488281,334.5265808105469
3587,510.9825439453125,-982.3071899414062,386.1484069824219,345.20025634765625
3588,517.4301147460939,-971.9625854492188,387.0833740234375,349.1121826171875
3589,493.9098815917969,-992.270263671875,360.6198425292969,326.6653137207031
3590,492.1446533203125,-1000.7860107421876,357.8897399902344,321.30975341796875
3591,514.8720092773439,-978.2044677734376,371.7049255371094,335.77569580078125
3592,518.21923828125,-964.4229736328124,386.0623779296875,347.017822265625
3593,491.20220947265625,-995.92041015625,368.84014892578125,331.7665100097656
3594,491.44903564453125,-996.0288696289062,377.1427307128906,329.1485900878906
3595,509.5650939941406,-969.2548828125,393.0485229492188,350.7203369140625
3596,530.0485229492189,-958.6223754882812,406.478515625,355.8365173339844
3597,498.5697937011719,-983.455322265625,385.6322937011719,337.69427490234375
3598,497.5675048828125,-987.92822265625,376.7911682128906,332.4808349609375
3599,514.1913452148439,-971.072509765625,392.7418518066406,348.7756042480469
3600,521.4542236328125,-964.7670288085938,398.8304138183594,360.28326416015625
3601,492.0586242675781,-988.5714721679688,376.3087463378906,335.18853759765625
3602,485.9588623046875,-988.7547607421876,366.5999450683594,330.1695861816406
3603,510.7319641113281,-966.4163208007812,389.248779296875,346.5877380371094
3604,512.2839965820311,-958.7570190429688,383.1901550292969,351.5655517578125
3605,485.225830078125,-985.9124145507812,355.1259460449219,329.83673095703125
3606,479.298095703125,-992.9658813476562,353.2559814453125,322.68603515625
3607,505.4175720214844,-963.9180908203124,374.8539123535156,338.11688232421875
3608,513.3087768554689,-956.965576171875,389.58538818359375,346.8457946777344
3609,492.021240234375,-977.6771850585938,374.09844970703125,328.59881591796875
3610,478.0676574707031,-988.9567260742188,368.4624328613281,324.1371154785156
3611,508.7572937011719,-962.059326171875,398.23577880859375,342.44769287109375
3612,525.1978759765625,-956.02685546875,408.6775817871094,354.0525817871094
3613,499.0260620117188,-984.7530517578124,382.62542724609375,337.77655029296875
3614,492.3690490722656,-990.9463500976562,380.3029479980469,329.76568603515625
3615,514.251220703125,-971.0126953125,400.8649291992188,346.3932800292969
3616,520.4182739257811,-964.7557983398438,400.04962158203125,350.6193542480469
3617,498.38653564453125,-986.3687133789062,368.6419372558594,331.4075012207031
3618,487.6361999511719,-991.1968994140624,363.66412353515625,327.1477355957031
3619,509.81005859375,-967.3101806640624,383.5005493164063,344.3662414550781
3620,516.8897094726561,-960.238037109375,392.1958312988281,356.22174072265625
3621,492.2961120605469,-985.7628173828124,369.1767578125,337.5409240722656
3622,486.09912109375,-996.2046508789062,365.7472534179688,326.9944152832031
3623,510.51690673828125,-969.5167236328124,389.7873229980469,349.0635681152344
3624,528.80126953125,-971.753173828125,404.3056335449219,355.1558532714844
3625,500.1611328125,-998.2952270507812,376.4732971191406,335.42041015625
3626,495.5610656738281,-1003.0261840820312,373.2569885253906,328.7110290527344
3627,522.3312377929689,-972.8564453125,394.48089599609375,337.451171875
3628,525.820556640625,-966.3228149414062,402.08038330078125,340.4655456542969
3629,496.3688659667969,-986.6679077148438,373.0550231933594,318.57965087890625
3630,488.1111755371094,-990.217041015625,364.3373107910156,318.0784912109375
3631,516.5643310546875,-959.96875,386.4214172363281,331.4748229980469
3632,527.9486083984375,-952.7245483398438,397.0838928222656,345.17779541015625
3633,502.262939453125,-976.6038208007812,373.74688720703125,327.8508605957031
3634,497.9882507324219,-980.2202758789062,367.99493408203125,324.3278503417969
3635,516.1753540039061,-963.9854125976562,394.2939147949219,345.57049560546875
3636,520.2742919921875,-959.7293701171876,400.56573486328125,358.7386779785156
3637,492.2325439453125,-988.78466796875,378.84063720703125,337.9448547363281
3638,486.5329284667969,-1003.4824829101562,368.9635620117188,334.7098388671875
3639,511.2200012207031,-979.4423828125,390.01171875,352.4331970214844
3640,521.3963012695311,-965.369140625,403.4903259277344,357.6578674316406
3641,491.6865234375,-982.0491333007812,373.5860900878906,335.8729248046875
3642,489.4051818847656,-992.4086303710938,369.1617736816406,325.2927551269531
3643,514.6121215820311,-964.88671875,385.4415588378906,344.2802429199219
3644,520.068603515625,-966.5023193359376,397.734619140625,341.277099609375
3645,501.5635986328125,-981.413330078125,378.5152893066406,328.9578552246094
3646,490.4673156738281,-987.4046630859376,373.08868408203125,322.345703125
3647,517.9481201171875,-955.5145263671876,394.095703125,335.42041015625
3648,524.7771606445311,-947.8663940429688,409.16748046875,350.1630859375
3649,495.3067321777344,-967.2203979492188,379.9626159667969,324.997314453125
3650,486.3534240722656,-977.5238037109376,367.0038757324219,321.6239013671875
3651,513.1685180664061,-954.781494140625,389.2113952636719,342.6047668457031
3652,517.42822265625,-952.9676513671876,397.4989929199219,351.7301025390625
3653,490.055908203125,-976.0989379882812,379.06878662109375,338.038330078125
3654,481.8019714355469,-977.9539184570312,369.50958251953125,333.0044250488281
3655,501.68701171875,-954.2391967773438,390.9093017578125,351.68896484375
3656,506.0813903808594,-960.7728271484376,394.2565002441406,352.82965087890625
3657,469.96142578125,-980.710205078125,361.75677490234375,335.92529296875
3658,477.7254638671875,-986.4622192382812,359.845703125,332.5369567871094
3659,507.73443603515625,-963.8170776367188,379.5250549316406,353.3681945800781
3660,511.5005187988281,-965.3990478515624,390.621337890625,351.3561096191406
3661,492.57659912109375,-988.0778198242188,370.5867004394531,329.9489440917969
3662,489.8951110839844,-991.2343139648438,365.4817199707031,325.0085144042969
3663,522.5743408203125,-966.599609375,395.5579833984375,344.3811950683594
3664,523.9020385742189,-957.8856201171876,394.2340698242188,341.5052185058594
3665,495.8752136230469,-972.3739624023438,371.0915832519531,325.6629943847656
3666,494.2408752441406,-981.215087890625,370.3136596679688,321.16766357421875
3667,521.8936767578125,-959.5498657226562,396.99786376953125,340.9442443847656
3668,520.442626953125,-961.4534912109376,405.4425659179688,349.4974060058594
3669,501.9824523925781,-987.2438354492188,382.3486633300781,337.1183166503906
3670,499.74224853515625,-991.2118530273438,380.4226379394531,330.5660095214844
3671,517.6825561523439,-974.1990356445312,395.176513671875,344.7103271484375
3672,523.670166015625,-967.844970703125,403.65863037109375,355.0848083496094
3673,499.7198181152344,-993.0481567382812,377.2437133789063,330.6894226074219
3674,483.77288818359375,-990.84912109375,370.11920166015625,327.2861328125
3675,514.76171875,-967.44482421875,398.1983642578125,353.6037902832031
3676,518.3108520507811,-964.0601806640624,393.2991027832031,349.5946350097656
3677,491.09185791015625,-983.021484375,371.2411804199219,336.1534423828125
3678,486.4132690429688,-987.5953979492188,364.12786865234375,327.65264892578125
3679,514.9449462890625,-968.9931030273438,391.6759948730469,343.16949462890625
3680,521.8787231445311,-959.9014282226562,395.6290588378906,350.5333557128906
3681,501.0287780761719,-986.5444946289062,365.2236633300781,326.3062744140625
3682,492.4457092285156,-984.9288330078124,367.24322509765625,324.1034851074219
3683,520.7118530273439,-970.287109375,391.23468017578125,339.76617431640625
3684,528.7040405273439,-966.1994018554688,392.0724182128906,347.23101806640625
3685,493.9790649414063,-989.6672973632812,365.4817199707031,330.1172180175781
3686,489.7417602539063,-993.3361206054688,362.27288818359375,324.19696044921875
3687,522.1255493164061,-963.443115234375,385.0750732421875,338.37493896484375
3688,519.9115600585939,-961.4422607421876,390.4268493652344,345.3049621582031
3689,497.4908447265625,-987.9058227539062,367.6695556640625,329.15606689453125
3690,498.99053955078125,-985.4823608398438,363.91845703125,331.8712463378906
3691,515.2628173828125,-968.0281982421876,382.3411865234375,346.4344177246094
3692,518.5390014648439,-966.4163208007812,388.0033874511719,353.4766540527344
3693,491.944580078125,-990.2133178710938,367.1646728515625,333.6028137207031
3694,490.1943054199219,-988.0965576171876,363.4920959472656,329.4328308105469
3695,514.9337158203125,-965.440185546875,387.4311828613281,348.1846923828125
3696,513.6023559570311,-962.8260498046876,393.5272216796875,354.7332458496094
3697,488.81427001953125,-991.6755981445312,372.3182678222656,335.59619140625
3698,481.6748046875,-991.7205200195312,367.8640441894531,330.8240661621094
3699,508.15704345703125,-972.564697265625,390.70733642578125,349.1495666503906
3700,514.6307983398439,-966.1358642578124,400.1506042480469,359.7035827636719
3701,488.63848876953125,-988.9978637695312,377.6588439941406,339.4931640625
3702,485.6764831542969,-1001.7022705078124,368.3614501953125,331.7665100097656
3703,515.842529296875,-973.7053833007812,387.4424133300781,345.7013854980469
3704,516.665283203125,-972.445068359375,386.2531127929688,345.5517883300781
3705,489.6071472167969,-995.322021484375,364.7337341308594,336.4114685058594
3706,483.5896301269531,-1000.8607788085938,355.2269287109375,327.8545837402344
3707,514.75048828125,-972.2954711914062,382.0606994628906,341.9876708984375
3708,530.3458862304689,-963.9218139648438,395.6963806152344,356.0422058105469
3709,491.7650451660156,-991.14453125,361.8016662597656,332.01336669921875
3710,486.2748718261719,-991.4661865234376,362.96478271484375,330.12469482421875
3711,516.5867919921875,-973.114501953125,386.9637145996094,347.0701904296875
3712,515.56201171875,-971.6334838867188,395.48321533203125,351.8198547363281
3713,488.8067932128906,-1000.4755859375,370.4632568359375,334.0366516113281
3714,484.8537292480469,-998.9085693359376,367.6620788574219,327.03179931640625
3715,505.7111511230469,-978.9898681640624,390.3109130859375,345.9706726074219
3716,513.7108154296875,-967.42236328125,398.591064453125,355.18951416015625
3717,491.6528625488281,-986.5856323242188,371.7311096191406,338.0046691894531
3718,489.1097412109375,-995.7820434570312,366.4391479492188,333.5654296875
3719,514.0324096679689,-971.3978881835938,387.33770751953125,350.44732666015625
3720,511.0292663574219,-970.27587890625,390.0005187988281,350.5931701660156
3721,487.9952392578125,-991.4175415039062,377.6251831054688,336.0786437988281
3722,489.18450927734375,-999.0880737304688,371.86572265625,335.09503173828125
3723,515.7153930664061,-974.5094604492188,392.06494140625,346.2698669433594
3724,512.8244018554689,-972.7442626953124,397.55511474609375,352.14898681640625
3725,488.47393798828125,-994.630126953125,370.27252197265625,337.8251647949219
3726,487.3856201171875,-996.2794189453124,363.3612060546875,338.22906494140625
3727,512.1886596679689,-973.2827758789062,388.9645690917969,351.0232849121094
3728,519.8816528320311,-966.76416015625,400.6966247558594,362.8413391113281
3729,493.1749877929688,-986.353759765625,383.990478515625,340.8058776855469
3730,483.7803649902344,-996.1260986328124,377.2586669921875,333.90576171875
3731,509.6081237792969,-971.3043823242188,396.3359069824219,347.88922119140625
3732,508.9386901855469,-961.0570678710938,395.28497314453125,350.9671630859375
3733,493.5452575683594,-988.60888671875,373.32427978515625,334.1114501953125
3734,486.2711486816406,-996.2943725585938,372.2621765136719,332.780029296875
3735,513.3330688476561,-971.9850463867188,394.95587158203125,351.0943298339844
3736,519.904052734375,-968.6527709960938,396.4331359863281,355.0062561035156
3737,491.8248901367188,-990.1572265625,369.0421142578125,337.9223937988281
3738,487.5502014160156,-995.5239868164062,366.29327392578125,328.625
3739,512.308349609375,-976.8057861328124,389.11041259765625,349.2879638671875
3740,522.8585815429689,-973.3762817382812,397.7271423339844,355.8477478027344
3741,500.56878662109375,-992.2440795898438,372.7034606933594,340.0317077636719
3742,490.1307067871094,-992.9434204101562,369.7751159667969,334.3096618652344
3743,521.1681518554689,-970.709716796875,396.8407897949219,356.8724670410156
3744,519.1785278320311,-967.3214111328124,401.4857482910156,364.3597412109375
3745,499.6524963378906,-991.3502197265624,380.8639221191406,346.2287292480469
3746,492.449462890625,-999.8585205078124,375.2765197753906,335.9290466308594
3747,519.6759033203125,-981.2188720703124,394.9483947753906,350.9447326660156
3748,530.36083984375,-971.7905883789062,401.49322509765625,358.9892578125
3749,494.5251159667969,-994.7199096679688,370.57171630859375,336.75555419921875
3750,487.28466796875,-997.7678833007812,372.052734375,333.0380859375
3751,505.8607482910156,-980.1791381835938,386.38775634765625,346.67376708984375
3752,508.82275390625,-972.0299072265624,392.3529052734375,357.1043395996094
3753,485.4147033691406,-991.6195068359376,370.4295959472656,339.4595031738281
3754,484.91729736328125,-991.8065185546876,363.5407104492188,330.4126892089844
3755,509.398681640625,-972.7218017578124,384.43927001953125,343.3489990234375
3756,514.8252563476561,-964.4566040039062,388.8673095703125,353.9366455078125
3757,488.1822204589844,-990.381591796875,371.0653991699219,333.5915832519531
3758,485.6764831542969,-995.4005737304688,364.1764831542969,325.7789306640625
3759,508.85638427734375,-971.6858520507812,384.9890441894531,342.7730407714844
3760,515.8761596679689,-975.7361450195312,389.8995361328125,351.1953125
3761,498.90826416015625,-994.7385864257812,374.319091796875,334.7060852050781
3762,490.66925048828125,-1001.2198486328124,367.3329772949219,328.09393310546875
3763,514.8065795898439,-973.772705078125,392.1135559082031,344.8711242675781
3764,520.337890625,-971.5811157226562,398.6396789550781,352.2499694824219
3765,491.1517028808594,-995.9877319335938,372.2546691894531,340.05413818359375
3766,480.818359375,-998.725341796875,368.6456909179688,333.3410339355469
3767,506.0364990234375,-974.8311157226562,389.1515502929688,351.04571533203125
3768,511.3434448242188,-968.1142578125,396.197509765625,358.5180358886719
3769,489.6295776367188,-991.2417602539062,375.527099609375,342.720703125
3770,481.9141540527344,-1000.6588745117188,367.8565673828125,335.09130859375
3771,508.23931884765625,-976.21484375,389.5666809082031,349.80780029296875
3772,511.0928649902344,-974.5767822265624,399.06976318359375,364.494384765625
3773,494.90283203125,-989.6036987304688,384.75341796875,348.63348388671875
3774,486.70123291015625,-999.0133056640624,370.7699279785156,338.74517822265625
3775,516.0744018554689,-973.3126831054688,399.6494445800781,357.8037109375
3776,527.8101806640625,-977.1834716796876,400.3114013671875,356.864990234375
3777,494.2034606933594,-999.076904296875,379.3343200683594,336.4226989746094
3778,490.22796630859375,-1001.2048950195312,374.25927734375,333.6177673339844
3779,513.9838256835939,-983.3094482421876,396.7472839355469,350.2079772949219
3780,524.294677734375,-976.8880615234376,402.73486328125,360.73577880859375
3781,497.9096984863281,-1004.7503051757812,379.8840637207031,344.50836181640625
3782,487.78955078125,-1004.982177734375,371.43939208984375,339.8297424316406
3783,512.3270263671875,-980.3773803710938,396.7921752929688,357.5119934082031
3784,515.9397583007811,-975.5828247070312,397.8056640625,358.9967346191406
3785,492.08294677734375,-998.1942749023438,374.8726196289063,338.0981750488281
3786,481.7346496582031,-999.6378784179688,370.2987060546875,337.2417297363281
3787,514.3428344726561,-987.5317993164062,396.6724853515625,357.11181640625
3788,523.7486572265625,-978.6083984375,404.2420349121094,359.59136962890625
3789,492.5504455566406,-1007.2261352539062,377.84210205078125,346.4231872558594
3790,489.1246948242188,-1008.5836791992188,372.6847839355469,336.8153991699219
3791,518.9802856445311,-985.1382446289062,399.8514099121094,356.9098815917969
3792,527.5147705078125,-985.5122680664062,401.0780944824219,362.7702941894531
3793,502.7453918457031,-1008.98388671875,384.8282165527344,344.56072998046875
3794,492.25872802734375,-1012.03564453125,375.2166748046875,338.31134033203125
3795,519.7095947265625,-992.247802734375,396.82208251953125,356.0721435546875
3796,520.3939819335939,-988.8258056640624,400.0870056152344,357.0220642089844
3797,492.59906005859375,-1005.88720703125,372.0302734375,339.6352844238281
3798,487.11260986328125,-1007.2859497070312,369.5245666503906,333.66265869140625
3799,511.19384765625,-987.6477661132812,392.6708068847656,350.2939758300781
3800,514.458740234375,-979.4386596679688,397.93658447265625,353.8169860839844
3801,490.4261779785156,-1002.237060546875,379.4652099609375,338.6404724121094
3802,488.0775146484375,-1013.5951538085938,373.23828125,331.1419677734375
3803,510.19903564453125,-989.3381958007812,398.8079833984375,351.9096374511719
3804,512.4541625976561,-985.661865234375,395.6701965332031,353.40557861328125
3805,489.3565673828125,-1009.8103637695312,375.94970703125,338.7414245605469
3806,481.9141540527344,-1015.3641357421876,375.2615661621094,339.68389892578125
3807,515.3002319335939,-996.5599365234376,397.910400390625,349.04486083984375
3808,514.679443359375,-988.0254516601562,401.9794006347656,354.1460876464844
3809,493.0291442871094,-1002.6409912109376,376.2975158691406,339.5679626464844
3810,490.6842346191406,-1006.3734130859376,371.9741821289063,332.7426452636719
3811,515.3451538085939,-984.5324096679688,391.6647644042969,349.6208190917969
3812,514.7355346679689,-984.1284790039062,399.1333312988281,352.09661865234375
3813,495.5797424316406,-1009.2045288085938,376.1441650390625,333.33355712890625
3814,481.1923522949219,-1007.95166015625,370.0743103027344,329.3094177246094
3815,513.0114135742189,-987.165283203125,389.9331970214844,346.63262939453125
3816,513.5088500976561,-986.8885498046876,395.6739501953125,346.8607482910156
3817,502.6668701171875,-1002.2221069335938,374.835205078125,330.9774169921875
3818,488.3280944824219,-1008.8155517578124,369.0982055664063,326.25390625
3819,513.7052001953125,-987.066162109375,395.4383239746094,348.3567199707031
3820,518.8325805664061,-984.5716552734376,398.7817993164063,353.4355163574219
3821,500.0732421875,-1005.1261596679688,379.56243896484375,336.7518005371094
3822,483.7635498046875,-1010.0889892578124,379.72698974609375,336.4226989746094
3823,514.5765991210939,-993.8316650390624,397.828125,353.8169860839844
3824,514.9842529296875,-984.2089233398438,394.9708251953125,350.5221252441406
3825,495.0954284667969,-1014.083251953125,373.3542175292969,337.2267761230469
3826,479.5224914550781,-1014.1580200195312,371.36083984375,338.8461608886719
3827,512.6879272460939,-1000.541015625,392.6184387207031,348.5773620605469
3828,514.4120483398439,-986.1574096679688,390.5091247558594,353.71600341796875
3829,496.02667236328125,-1012.8826904296876,370.55303955078125,331.63189697265625
3830,497.8517456054688,-1022.206298828125,369.0383605957031,327.016845703125
3831,522.8305053710939,-1000.5859375,391.2384033203125,342.84783935546875
3832,525.8897705078125,-996.9619750976562,392.7942199707031,345.0730895996094
3833,500.6753540039063,-1008.6940307617188,370.8671875,328.2547607421875
3834,498.7455749511719,-1009.7860717773438,372.793212890625,330.12469482421875
3835,514.48681640625,-991.0230102539062,387.2367248535156,339.4071350097656
3836,519.416015625,-983.6591186523438,390.9990539550781,345.8023681640625
3837,495.8135070800781,-1003.3123168945312,369.2889404296875,329.9638977050781
3838,488.3337097167969,-1007.6842651367188,365.0778198242188,326.3960266113281
3839,515.8444213867189,-986.7744750976562,385.1685485839844,335.80560302734375
3840,517.2393798828125,-980.5849609375,393.321533203125,343.39013671875
3841,497.89288330078125,-1004.0303955078124,368.9972229003906,330.9774169921875
3842,497.6759643554688,-1008.9408569335938,368.5260009765625,332.1966247558594
3843,519.7002563476561,-986.5164184570312,391.1748352050781,350.1107482910156
3844,528.2982788085939,-992.40673828125,394.28643798828125,350.9746398925781
3845,505.8439025878906,-1010.328369140625,375.42236328125,334.23486328125
3846,495.82470703125,-1010.5714721679688,371.3795471191406,326.1903381347656
3847,524.6705932617189,-989.7364501953124,391.1823120117188,341.2359619140625
3848,531.2752075195311,-989.3250732421876,400.4123840332031,350.9783935546875
3849,510.9077453613281,-1009.329833984375,382.3524169921875,337.63067626953125
3850,497.56378173828125,-1010.1450805664062,379.764404296875,338.1916809082031
3851,520.2425537109375,-990.6004028320312,399.4587097167969,353.989013671875
3852,522.12744140625,-987.230712890625,402.4356689453125,358.2637023925781
3853,496.1276550292969,-1010.7921142578124,382.5543518066406,345.0207214355469
3854,499.59454345703125,-1016.5178833007812,379.04632568359375,338.5881042480469
3855,519.88720703125,-1001.9547119140624,392.640869140625,348.5362243652344
3856,518.9185791015625,-992.9415893554688,396.466796875,351.8684997558594
3857,506.05706787109375,-1012.265625,375.6617431640625,333.9431457519531
3858,500.5482177734375,-1018.3616943359376,370.9906005859375,330.17333984375
3859,523.4850463867189,-993.8541259765624,393.7030029296875,345.73504638671875
3860,525.1006469726561,-993.6783447265624,393.6094970703125,348.7494201660156
3861,499.22802734375,-1020.9571533203124,376.0282287597656,334.5415344238281
3862,496.9953002929688,-1025.2542724609377,370.03692626953125,332.72393798828125
3863,526.7499389648439,-1005.2757568359376,396.0778503417969,349.2692565917969
3864,532.034423828125,-1000.4475708007812,403.1163330078125,360.7694396972656
3865,509.2808837890625,-1027.748779296875,385.8641662597656,340.14764404296875
3866,504.6059875488281,-1023.8480834960938,385.1910095214844,333.75616455078125
3867,522.6884155273439,-999.6284790039062,401.137939453125,351.3561096191406
3868,528.9302978515625,-991.4343872070312,407.4134826660156,353.3158264160156
3869,500.4472351074219,-1012.677001953125,381.0771179199219,331.90863037109375
3870,494.9234008789063,-1007.6318969726562,382.25518798828125,335.10626220703125
3871,516.0875244140625,-987.417724609375,398.4078063964844,350.9746398925781
3872,523.2456665039061,-992.3992919921876,407.218994140625,352.2349853515625
3873,502.1077575683594,-1012.4227294921876,387.1694030761719,333.9543762207031
3874,501.9880676269531,-1016.6113891601562,383.9306640625,336.71441650390625
3875,521.8768310546875,-1002.4259643554688,403.7857666015625,348.92144775390625
3876,533.9978637695311,-1001.6405639648438,403.344482421875,350.74652099609375
3877,501.4719543457031,-1021.3012084960938,383.8782958984375,336.9013977050781
3878,498.958740234375,-1023.4329833984376,383.2163391113281,329.8030700683594
3879,526.046875,-1000.0062255859376,407.1517028808594,354.43780517578125
3880,536.5596923828125,-995.1331787109376,413.333740234375,358.9144592285156
3881,507.6764526367188,-1017.3294677734376,392.6296691894531,344.98333740234375
3882,506.7676696777344,-1027.25146484375,386.4401245117188,337.77655029296875
3883,531.694091796875,-1005.0625610351562,403.8867492675781,349.1196594238281
3884,536.6793823242189,-996.8834228515624,409.5676574707031,358.6676330566406
3885,511.012451171875,-1012.6134643554688,391.0962829589844,344.7215270996094
3886,508.6189270019531,-1017.4005126953124,387.24420166015625,339.564208984375
3887,530.8451538085939,-997.2985229492188,409.61627197265625,355.33538818359375
3888,525.5756225585939,-996.5468139648438,413.3113098144531,360.3730163574219
3889,508.1925659179688,-1017.419189453125,393.27667236328125,342.0101013183594
3890,499.299072265625,-1025.4637451171877,387.1095581054688,334.72479248046875
3891,524.7864990234375,-1012.8153686523438,402.7124328613281,353.63372802734375
3892,529.08740234375,-1009.8421630859376,409.6349792480469,359.9205017089844
3893,509.06768798828125,-1030.9127197265623,382.3038024902344,347.9864807128906
3894,506.5582275390625,-1029.86181640625,387.67803955078125,343.62200927734375
3895,526.6452026367189,-1005.3318481445312,397.7570495605469,358.7648620605469
3896,523.3653564453125,-1003.9742431640624,397.9477844238281,357.0632019042969
3897,500.1592712402344,-1022.5092163085938,376.67523193359375,342.780517578125
3898,499.803955078125,-1017.4566040039062,375.7402648925781,335.3755187988281
3899,521.155029296875,-994.2280883789062,390.598876953125,347.14874267578125
3900,526.6489868164061,-990.7723999023438,396.3545837402344,353.0129089355469
3901,505.9710693359375,-1005.49267578125,382.3486633300781,336.2955322265625
3902,501.78985595703125,-1014.7451782226562,378.5489196777344,332.0806884765625
3903,523.043701171875,-994.8862915039062,396.9267883300781,343.812744140625
3904,526.1553344726561,-992.4142456054688,398.7593383789063,343.3826599121094
3905,500.2153625488281,-1012.3292236328124,382.3337097167969,338.48712158203125
3906,502.2723083496094,-1013.978515625,376.9108581542969,332.1479797363281
3907,525.272705078125,-997.089111328125,397.1661682128906,342.5411682128906
3908,524.7079467773439,-995.716552734375,394.98577880859375,343.988525390625
3909,500.4210510253906,-1010.9005737304688,374.9885559082031,333.5018310546875
3910,506.7153015136719,-1017.6735229492188,369.5544738769531,329.4627380371094
3911,522.0601196289061,-992.7396240234376,383.650146484375,342.7468566894531
3912,518.1556396484375,-985.7759399414062,386.5672912597656,350.7539978027344
3913,507.0294494628906,-1006.6295776367188,369.31884765625,335.2521057128906
3914,492.11474609375,-1011.2708129882812,373.32427978515625,333.9468994140625
3915,511.1283874511719,-990.843505859375,396.384521484375,349.4974060058594
3916,523.4513549804689,-984.5941162109376,404.6197814941406,350.9896240234375
3917,494.8560791015625,-1007.2952880859376,384.1064147949219,338.44598388671875
3918,500.09942626953125,-1012.4750366210938,384.19244384765625,333.87957763671875
3919,519.7974853515625,-994.80029296875,404.7992858886719,353.4953308105469
3920,519.3935546875,-993.9102172851562,410.0164489746094,360.3730163574219
3921,503.5962219238281,-1016.0429077148438,388.1230773925781,342.9488220214844
3922,498.8278503417969,-1022.7523193359376,388.7850341796875,342.4439392089844
3923,519.20654296875,-1003.6115112304688,405.4500427246094,354.4303283691406
3924,524.053466796875,-993.5399780273438,410.1548156738281,356.876220703125
3925,498.0013427734375,-1012.9612426757812,384.5813903808594,338.32257080078125
3926,488.8759765625,-1011.73828125,377.5952453613281,337.885009765625
3927,513.1703491210939,-992.91162109375,396.560302734375,348.6260070800781
3928,517.0860595703125,-985.5365600585938,405.47247314453125,353.80950927734375
3929,501.54302978515625,-1005.8629150390624,383.9119567871094,342.2120666503906
3930,488.442138671875,-1010.2909545898438,383.496826171875,340.32342529296875
3931,514.0791625976561,-992.829345703125,397.49151611328125,353.79827880859375
3932,521.27099609375,-983.4796142578124,405.4313354492188,359.57269287109375
3933,500.3500061035156,-1003.9817504882812,388.9009704589844,346.3670959472656
3934,498.6109313964844,-1012.1085815429688,384.5888671875,341.9914245605469
3935,523.5336303710939,-992.6311645507812,408.22503662109375,358.4357604980469
3936,523.5560913085939,-986.9427490234376,409.6648864746094,361.9998779296875
3937,510.0363464355469,-1006.5510864257812,392.6558227539063,347.5264587402344
3938,497.1748352050781,-1011.9888916015624,382.1915893554688,337.9036865234375
3939,515.3507080078125,-991.2586059570312,397.84307861328125,352.48931884765625
3940,528.6348876953125,-981.7630004882812,405.4425659179688,361.8951721191406
3941,504.5087585449219,-999.4976196289062,388.1754455566406,341.03399658203125
3942,506.2253723144531,-1014.2926635742188,380.703125,338.565673828125
3943,524.0796508789061,-993.192138671875,402.8769836425781,354.29193115234375
3944,524.8351440429689,-982.8924560546876,409.6050720214844,363.813720703125
3945,505.425048828125,-1007.100830078125,393.3551940917969,344.3662414550781
3946,500.4621887207031,-1008.0133666992188,386.7655029296875,338.5881042480469
3947,523.417724609375,-991.6251220703124,400.25531005859375,351.9096374511719
